Node Number	X Location (mm)	Y Location (mm)	Z Location (mm)	Equivalent (von-Mises) Stress (MPa)
1	6.57	7.62	0.	117.44
2	6.1	6.06	0.	159.64
3	7.69	6.44	0.	172.11
4	7.18	1.44	0.	125.49
5	6.82	-0.21	0.	154.39
6	8.43	0.31	0.	173.18
7	6.38	-5.23	0.	171.4
8	7.88	-5.18	0.	172.77
9	7.09	-3.91	0.	107.53
10	0.63	-7.75	0.	157.73
11	1.61	-8.12	0.	155.92
12	1.44	-7.08	0.	132.95
13	-2.07	-5.85	0.	113.38
14	-1.38	-4.8	0.	180.42
15	-2.64	-4.72	0.	175.05
16	0.27	6.4	0.	172.28
17	-0.96	6.36	0.	176.1
18	-0.31	5.32	0.	109.51
19	-5.27	-2.39	0.	165.37
20	-6.83	-2.78	0.	170.7
21	-5.72	-3.94	0.	118.
22	-6.74	3.38	0.	151.02
23	-8.03	4.21	0.	140.52
24	-8.1	2.68	0.	147.2
25	-7.93	1.6	0.	160.22
26	-7.23	0.36	0.	106.8
27	-6.51	1.59	0.	168.88
28	5.	4.	0.	136.69
29	5.	3.	0.	137.38
30	7.	4.	0.	127.73
31	7.	3.	0.	129.89
32	0.	4.	0.	128.8
33	0.	3.	0.	130.7
34	1.	4.	0.	134.54
35	1.	3.	0.	133.67
36	-9.	-7.	0.	134.
37	-9.	-8.	0.	133.91
38	-8.	-7.	0.	133.04
39	-8.	-8.	0.	132.54
40	10.	10.	0.	124.99
41	-10.	10.	0.	125.
42	10.	-10.	0.	125.37
43	-10.	-10.	0.	127.93
44	6.4133	7.1	0.	130.38
45	6.2567	6.58	0.	135.67
46	6.9443	7.2256	0.	88.914
47	7.3187	6.8312	0.	87.072
48	6.63	6.1867	0.	106.44
49	7.16	6.3133	0.	104.27
50	7.09	1.0275	0.	130.91
51	7.	0.615	0.	136.28
52	6.91	0.2025	0.	139.55
53	7.4925	1.1575	0.	95.158
54	7.805	0.875	0.	102.69
55	8.1175	0.5925	0.	86.496
56	7.2225	-8.e-002	0.	102.09
57	7.625	5.e-002	0.	111.8
58	8.0275	0.18	0.	95.207
59	6.88	-5.2133	0.	111.26
60	7.38	-5.1967	0.	110.95
61	6.6167	-4.79	0.	115.43
62	6.8533	-4.35	0.	109.66
63	7.6167	-4.7567	0.	105.7
64	7.3533	-4.3333	0.	102.82
65	1.12	-7.935	0.	82.719
66	1.035	-7.415	0.	61.294
67	1.525	-7.6	0.	142.74
68	-1.84	-5.5	0.	96.763
69	-1.61	-5.15	0.	113.
70	-2.26	-5.4733	0.	108.69
71	-2.45	-5.0967	0.	129.38
72	-1.8	-4.7733	0.	102.69
73	-2.22	-4.7467	0.	107.67
74	-0.14	6.3867	0.	102.24
75	-0.55	6.3733	0.	103.61
76	7.6667e-002	6.04	0.	121.25
77	-0.11667	5.68	0.	106.63
78	-0.74333	6.0133	0.	114.67
79	-0.52667	5.6667	0.	96.216
80	-5.79	-2.52	0.	108.21
81	-6.31	-2.65	0.	99.507
82	-5.42	-2.9067	0.	136.87
83	-5.57	-3.4233	0.	131.08
84	-6.46	-3.1667	0.	79.596
85	-6.09	-3.5533	0.	88.797
86	-7.17	3.6567	0.	77.323
87	-7.6	3.9333	0.	88.745
88	-7.1933	3.1467	0.	77.559
89	-7.6467	2.9133	0.	90.33
90	-8.0533	3.7	0.	143.41
91	-8.0767	3.19	0.	145.17
92	-7.6967	1.1867	0.	104.43
93	-7.4633	0.77333	0.	101.69
94	-7.4567	1.5967	0.	103.43
95	-6.9833	1.5933	0.	102.95
96	-6.99	0.77	0.	103.14
97	-6.75	1.18	0.	114.32
98	5.	3.5	0.	145.36
99	5.5	4.	0.	117.81
100	6.	4.	0.	119.44
101	6.5	4.	0.	111.15
102	5.5	3.	0.	118.19
103	6.	3.	0.	121.67
104	6.5	3.	0.	113.48
105	7.	3.5	0.	136.55
106	0.	3.5	0.	138.86
107	0.5	4.	0.	110.37
108	0.5	3.	0.	109.78
109	1.	3.5	0.	142.93
110	-9.	-7.5	0.	144.33
111	-8.5	-7.	0.	111.33
112	-8.5	-8.	0.	110.96
113	-8.	-7.5	0.	141.9
114	9.5	10.	0.	124.97
115	9.	10.	0.	124.68
116	8.5	10.	0.	124.01
117	8.	10.	0.	123.01
118	7.5	10.	0.	121.99
119	7.	10.	0.	121.45
120	6.5	10.	0.	121.74
121	6.	10.	0.	122.88
122	5.5	10.	0.	124.4
123	5.	10.	0.	125.78
124	4.5	10.	0.	126.72
125	4.	10.	0.	127.24
126	3.5	10.	0.	127.45
127	3.	10.	0.	127.44
128	2.5	10.	0.	127.25
129	2.	10.	0.	126.87
130	1.5	10.	0.	126.32
131	1.	10.	0.	125.65
132	0.5	10.	0.	125.
133	-5.2042e-015	10.	0.	124.56
134	-0.5	10.	0.	124.47
135	-1.	10.	0.	124.75
136	-1.5	10.	0.	125.27
137	-2.	10.	0.	125.83
138	-2.5	10.	0.	126.25
139	-3.	10.	0.	126.46
140	-3.5	10.	0.	126.47
141	-4.	10.	0.	126.32
142	-4.5	10.	0.	126.06
143	-5.	10.	0.	125.75
144	-5.5	10.	0.	125.44
145	-6.	10.	0.	125.14
146	-6.5	10.	0.	124.91
147	-7.	10.	0.	124.76
148	-7.5	10.	0.	124.7
149	-8.	10.	0.	124.73
150	-8.5	10.	0.	124.82
151	-9.	10.	0.	124.92
152	-9.5	10.	0.	124.99
153	10.	9.5	0.	125.02
154	10.	9.	0.	125.3
155	10.	8.5	0.	125.38
156	10.	8.	0.	124.7
157	10.	7.5	0.	123.38
158	10.	7.	0.	122.24
159	10.	6.5	0.	122.62
160	10.	6.	0.	124.75
161	10.	5.5	0.	127.49
162	10.	5.	0.	129.37
163	10.	4.5	0.	130.01
164	10.	4.	0.	130.01
165	10.	3.5	0.	130.19
166	10.	3.	0.	130.95
167	10.	2.5	0.	131.91
168	10.	2.	0.	132.02
169	10.	1.5	0.	130.19
170	10.	1.	0.	126.59
171	10.	0.5	0.	124.14
172	10.	-5.2042e-015	0.	126.22
173	10.	-0.5	0.	130.6
174	10.	-1.	0.	133.45
175	10.	-1.5	0.	134.02
176	10.	-2.	0.	133.39
177	10.	-2.5	0.	132.25
178	10.	-3.	0.	130.62
179	10.	-3.5	0.	128.19
180	10.	-4.	0.	125.09
181	10.	-4.5	0.	122.35
182	10.	-5.	0.	121.58
183	10.	-5.5	0.	123.33
184	10.	-6.	0.	126.03
185	10.	-6.5	0.	127.85
186	10.	-7.	0.	128.29
187	10.	-7.5	0.	127.85
188	10.	-8.	0.	127.09
189	10.	-8.5	0.	126.36
190	10.	-9.	0.	125.81
191	10.	-9.5	0.	125.48
192	-10.	9.5	0.	125.01
193	-10.	9.	0.	125.15
194	-10.	8.5	0.	125.44
195	-10.	8.	0.	125.88
196	-10.	7.5	0.	126.54
197	-10.	7.	0.	127.48
198	-10.	6.5	0.	128.75
199	-10.	6.	0.	130.24
200	-10.	5.5	0.	131.45
201	-10.	5.	0.	131.45
202	-10.	4.5	0.	129.38
203	-10.	4.	0.	126.31
204	-10.	3.5	0.	124.75
205	-10.	3.	0.	126.23
206	-10.	2.5	0.	129.01
207	-10.	2.	0.	130.18
208	-10.	1.5	0.	129.48
209	-10.	1.	0.	129.2
210	-10.	0.5	0.	130.25
211	-10.	-5.2042e-015	0.	131.52
212	-10.	-0.5	0.	131.84
213	-10.	-1.	0.	130.86
214	-10.	-1.5	0.	128.91
215	-10.	-2.	0.	126.58
216	-10.	-2.5	0.	124.52
217	-10.	-3.	0.	123.3
218	-10.	-3.5	0.	123.12
219	-10.	-4.	0.	123.83
220	-10.	-4.5	0.	125.09
221	-10.	-5.	0.	126.7
222	-10.	-5.5	0.	128.81
223	-10.	-6.	0.	131.39
224	-10.	-6.5	0.	132.01
225	-10.	-7.	0.	128.31
226	-10.	-7.5	0.	124.35
227	-10.	-8.	0.	127.84
228	-10.	-8.5	0.	131.28
229	-10.	-9.	0.	130.76
230	-10.	-9.5	0.	128.72
231	-9.5	-10.	0.	125.72
232	-9.	-10.	0.	122.56
233	-8.5	-10.	0.	120.89
234	-8.	-10.	0.	121.6
235	-7.5	-10.	0.	123.66
236	-7.	-10.	0.	125.41
237	-6.5	-10.	0.	126.24
238	-6.	-10.	0.	126.4
239	-5.5	-10.	0.	126.29
240	-5.	-10.	0.	126.11
241	-4.5	-10.	0.	125.92
242	-4.	-10.	0.	125.74
243	-3.5	-10.	0.	125.6
244	-3.	-10.	0.	125.58
245	-2.5	-10.	0.	125.79
246	-2.	-10.	0.	126.3
247	-1.5	-10.	0.	127.07
248	-1.	-10.	0.	127.81
249	-0.5	-10.	0.	127.79
250	5.2042e-015	-10.	0.	126.13
251	0.5	-10.	0.	122.77
252	1.	-10.	0.	119.93
253	1.5	-10.	0.	120.75
254	2.	-10.	0.	124.52
255	2.5	-10.	0.	128.23
256	3.	-10.	0.	129.77
257	3.5	-10.	0.	129.67
258	4.	-10.	0.	128.8
259	4.5	-10.	0.	127.7
260	5.	-10.	0.	126.55
261	5.5	-10.	0.	125.43
262	6.	-10.	0.	124.45
263	6.5	-10.	0.	123.69
264	7.	-10.	0.	123.26
265	7.5	-10.	0.	123.2
266	8.	-10.	0.	123.49
267	8.5	-10.	0.	124.03
268	9.	-10.	0.	124.65
269	9.5	-10.	0.	125.17
270	2.0502	-1.9296	0.	126.53
271	1.6136	-1.995	0.	126.35
272	2.4361	-1.3688	0.	126.78
273	1.9936	-1.4288	0.	126.52
274	0.74213	-1.5027	0.	125.91
275	1.1684	-2.0082	0.	126.24
276	-2.3945	-0.16015	0.	126.91
277	2.4326	-0.89485	0.	126.77
278	1.1368	-1.5279	0.	126.1
279	1.5517	-1.4811	0.	126.29
280	2.7017	-3.1732	0.	126.26
281	2.6443	-3.6237	0.	125.81
282	-1.963	-0.70109	0.	126.04
283	-1.5084	-0.79814	0.	125.45
284	2.8897	-1.3317	0.	127.01
285	0.41501	-0.94664	0.	125.43
286	1.9584	-0.93662	0.	126.46
287	3.1841	-2.7272	0.	126.97
288	0.31234	-1.3776	0.	125.64
289	3.2952	-1.7957	0.	127.28
290	-1.4471	-0.35681	0.	125.63
291	2.433	-0.41637	0.	126.82
292	0.71919	-1.9774	0.	126.15
293	3.7134	-2.2626	0.	127.59
294	-1.9	-0.1423	0.	126.23
295	2.9308	8.2319e-002	0.	127.23
296	3.1022	-4.1166	0.	125.87
297	-3.1527	0.43601	0.	127.42
298	1.7037	-3.0215	0.	125.93
299	1.1906	-2.5065	0.	126.27
300	2.1663	-3.5599	0.	125.52
301	-2.5872	0.34759	0.	127.03
302	-4.0539	5.2484	0.	126.67
303	-3.6197	5.227	0.	126.66
304	-1.037	-0.85634	0.	125.16
305	2.9195	-0.39308	0.	127.01
306	2.9071	-0.86526	0.	126.98
307	-8.3636e-002	-0.91356	0.	125.21
308	1.4741	-0.98107	0.	126.12
309	-2.0098	-1.219	0.	125.55
310	3.1568	-3.1873	0.	126.62
311	-0.14769	-1.3914	0.	125.41
312	-1.5527	-1.2812	0.	125.04
313	3.424	9.5813e-002	0.	127.07
314	3.3503	-1.3233	0.	127.2
315	-3.1012	0.94328	0.	126.95
316	-3.588	4.7877	0.	126.9
317	-0.99226	-0.39126	0.	125.25
318	0.4582	-0.46814	0.	125.13
319	1.9469	-0.44681	0.	126.43
320	3.6689	-2.7257	0.	127.42
321	3.5446	-4.0876	0.	126.18
322	0.26888	-1.918	0.	125.97
323	3.7689	-1.7943	0.	127.56
324	-1.4484	5.5774e-002	0.	125.76
325	2.4411	6.4668e-002	0.	127.01
326	2.6223	-4.1081	0.	125.43
327	-3.2618	-6.6987e-002	0.	128.09
328	-3.677	0.47599	0.	127.52
329	-2.0499	-1.726	0.	124.69
330	-2.4658	-1.1719	0.	126.48
331	-2.8783	-0.62903	0.	127.83
332	1.1956	-3.0086	0.	126.08
333	0.71542	-2.4733	0.	126.38
334	1.6719	-3.5471	0.	125.36
335	4.2031	-2.2648	0.	127.95
336	-2.5743	0.91577	0.	126.79
337	-2.0204	0.41365	0.	126.45
338	2.9493	0.56222	0.	127.69
339	3.1456	-4.5837	0.	125.86
340	-4.0773	4.797	0.	126.83
341	-4.4066	5.8495	0.	126.37
342	-3.8411	5.6756	0.	126.38
343	-1.0869	-1.3322	0.	124.95
344	3.4039	-0.37855	0.	126.95
345	3.382	-0.85086	0.	127.05
346	-3.5792	4.3322	0.	126.95
347	-0.52185	-0.41619	0.	125.02
348	-3.7461e-002	-0.4378	0.	124.97
349	1.4556	-0.47893	0.	125.95
350	-3.0514	2.9337	0.	126.52
351	3.6262	-3.185	0.	127.06
352	3.5784	-3.6411	0.	126.59
353	-0.19287	-1.8872	0.	125.66
354	3.9214	0.10675	0.	126.48
355	3.821	-1.3179	0.	127.34
356	-3.0608	1.9553	0.	126.51
357	-0.98428	6.775e-002	0.	125.27
358	0.47604	2.5023e-002	0.	124.71
359	2.1273	-4.0951	0.	124.9
360	-3.5688	2.4405	0.	126.58
361	4.1538	-2.7311	0.	127.87
362	3.5386	-6.0414	0.	127.7
363	-3.7521	-2.3766e-002	0.	128.43
364	-3.1538	5.2665	0.	126.8
365	0.24719	-2.4281	0.	126.4
366	1.1716	-3.5209	0.	125.58
367	4.6931	-2.2665	0.	128.12
368	-2.0488	0.93772	0.	126.5
369	-1.5073	0.4975	0.	125.92
370	2.9664	1.0438	0.	128.4
371	3.1486	-5.0552	0.	126.24
372	2.6352	-4.592	0.	125.33
373	-3.3411	-0.5771	0.	128.86
374	-4.085	4.3317	0.	126.82
375	-0.66069	-1.8574	0.	125.16
376	-1.1273	-1.8204	0.	124.61
377	3.8931	-0.36679	0.	126.61
378	3.8637	-0.84118	0.	126.98
379	-3.5937	1.4652	0.	126.63
380	-3.5769	1.9545	0.	126.56
381	-3.0626	4.3517	0.	127.31
382	-3.0538	2.4477	0.	126.46
383	-0.5046	5.9215e-002	0.	124.85
384	-1.7265e-002	4.2869e-002	0.	124.62
385	0.96916	1.4939e-002	0.	125.16
386	1.4603	2.3996e-002	0.	125.81
387	3.6001	-5.5509	0.	126.95
388	4.0984	-3.1946	0.	127.52
389	4.0352	-3.6499	0.	126.94
390	-5.4449	6.4402	0.	125.24
391	-4.9033	6.4191	0.	125.83
392	-4.3191	6.3889	0.	126.08
393	-2.57	4.8473	0.	128.04
394	3.1272	5.9858	0.	127.39
395	-2.0869	-2.23	0.	123.43
396	3.9658	-6.5594	0.	127.66
397	-4.2555	8.2114e-003	0.	128.23
398	-2.9645	-1.6338	0.	127.27
399	-2.6407	5.3011	0.	127.29
400	3.2017	6.4899	0.	126.39
401	0.22443	-2.9343	0.	126.94
402	0.67716	-3.4811	0.	126.29
403	5.1841	-2.2728	0.	127.79
404	4.7418	-1.7865	0.	127.9
405	3.7011	6.5083	0.	126.13
406	3.4663	1.0513	0.	128.34
407	-1.5304	0.98235	0.	126.1
408	-2.0471	1.4536	0.	126.51
409	2.9812	1.5296	0.	129.16
410	2.4696	1.0354	0.	128.05
411	4.4707	-6.5832	0.	127.99
412	2.6543	-5.0722	0.	125.72
413	3.1348	-5.5298	0.	127.04
414	-3.8183	-0.52858	0.	129.58
415	-3.3895	-1.0818	0.	129.39
416	-4.5606	4.8394	0.	126.98
417	4.3789	-4.1658	0.	126.33
418	4.6386	-2.7409	0.	128.22
419	-4.0882	3.8608	0.	126.73
420	-5.4638	5.931	0.	125.86
421	-6.4797	6.4775	0.	122.81
422	2.1225	-4.6103	0.	124.46
423	4.0148	-6.0766	0.	127.54
424	4.2319	-4.6256	0.	125.82
425	1.9626	0.5347	0.	126.72
426	0.48427	0.51925	0.	124.12
427	-1.004	0.53251	0.	125.32
428	-2.5488	1.9575	0.	126.48
429	-2.535	3.4386	0.	126.68
430	3.9471	0.58164	0.	126.81
431	-4.0832	2.4366	0.	126.87
432	-4.1409	0.99363	0.	126.69
433	4.3023	-1.3116	0.	127.43
434	4.4191	0.11695	0.	125.49
435	-0.22312	-2.391	0.	126.12
436	1.1232	-4.0427	0.	124.68
437	-3.2662	5.7124	0.	126.29
438	-3.8398	6.5825	0.	126.13
439	-3.3595	6.6243	0.	126.3
440	-3.3176	6.1649	0.	126.09
441	-0.69105	-2.3549	0.	125.35
442	-1.1604	-2.3153	0.	124.23
443	4.3836	-0.3558	0.	126.06
444	4.3452	-0.8334	0.	126.82
445	-4.0908	1.9573	0.	126.73
446	4.4544	0.59336	0.	125.5
447	4.9603	0.6073	0.	123.8
448	-2.5349	3.9138	0.	127.31
449	-2.5364	2.952	0.	126.38
450	-2.541	2.4575	0.	126.37
451	-0.50723	0.53664	0.	124.64
452	-1.149e-002	0.5285	0.	124.13
453	1.4705	0.52236	0.	125.73
454	4.0734	-5.589	0.	126.84
455	1.0439	-4.5582	0.	123.51
456	-5.5676	-6.4745	0.	123.86
457	-5.0783	-6.4742	0.	125.
458	-6.4876	5.9793	0.	122.76
459	-4.0868	3.3883	0.	126.71
460	4.5732	-3.2178	0.	128.01
461	4.4944	-3.6879	0.	127.33
462	-4.5856	-6.4794	0.	126.6
463	-5.0481	4.8789	0.	127.33
464	-3.861	-1.0383	0.	130.9
465	2.6696	-5.5451	0.	126.77
466	4.9682	-6.6034	0.	128.61
467	2.4819	1.524	0.	128.82
468	2.5984	5.4523	0.	128.36
469	-1.5356	1.4773	0.	126.34
470	3.4828	1.535	0.	129.35
471	3.6358	6.005	0.	127.5
472	3.5904	5.5003	0.	129.31
473	4.2177	6.522	0.	125.46
474	5.2365	-1.7831	0.	127.61
475	0.19129	-3.4372	0.	127.41
476	-5.9663	6.9649	0.	124.09
477	-5.45	6.9519	0.	124.92
478	-4.9291	6.943	0.	125.5
479	-4.4123	6.9566	0.	125.88
480	-3.4125	7.0891	0.	126.62
481	3.2966	6.9896	0.	125.97
482	3.7919	7.0043	0.	125.63
483	4.2973	7.0185	0.	125.24
484	-7.0566	-4.9851	0.	125.08
485	-7.0722	-4.4937	0.	126.84
486	-2.1087	5.3472	0.	128.56
487	-3.4262	-1.588	0.	129.3
488	-6.9901	6.0054	0.	120.52
489	-6.9853	6.4973	0.	121.48
490	-6.9831	6.9929	0.	122.34
491	5.6826	-2.2789	0.	126.26
492	0.37418	-6.4029	0.	129.33
493	-0.46735	-5.9579	0.	131.44
494	5.1267	-2.7578	0.	128.22
495	-4.5842	4.3516	0.	126.87
496	0.79756	-5.4923	0.	122.18
497	2.1741	-5.1062	0.	124.58
498	3.1085	-5.9908	0.	127.97
499	4.455	-7.063	0.	127.52
500	3.9505	-7.0429	0.	127.27
501	4.8552	-4.2015	0.	126.49
502	-6.074	-5.9668	0.	122.58
503	-4.0618	-6.9828	0.	127.64
504	-5.0529	-6.9791	0.	125.32
505	-5.5454	-6.9813	0.	124.41
506	1.9744	1.0262	0.	127.21
507	0.48817	1.0137	0.	123.19
508	-2.0397	1.9633	0.	126.47
509	-2.0196	3.4609	0.	126.29
510	3.9701	1.0562	0.	127.72
511	3.0155	3.4914	0.	128.41
512	3.0614	4.9767	0.	129.78
513	-4.5932	2.4364	0.	127.69
514	-4.6512	1.0152	0.	126.19
515	4.7879	-1.3051	0.	127.52
516	4.918	0.13385	0.	124.25
517	-2.1212	-2.7313	0.	121.74
518	-3.0053	-2.1403	0.	126.31
519	-0.2516	-2.8925	0.	126.97
520	0.34788	-5.4739	0.	124.13
521	2.3822	7.4447	0.	126.86
522	-2.8693	6.6601	0.	126.59
523	2.2442	6.4413	0.	126.11
524	2.3232	6.9374	0.	126.47
525	0.54471	-4.4968	0.	124.36
526	-0.72269	-2.8533	0.	126.02
527	-1.192	-2.8129	0.	123.96
528	-2.5831	-2.6901	0.	123.34
529	-3.0447	-2.6464	0.	125.64
530	4.877	-0.34221	0.	125.49
531	4.8318	-0.82301	0.	126.74
532	-4.6196	1.4878	0.	126.57
533	-4.5997	1.9618	0.	127.25
534	4.4798	1.0642	0.	126.32
535	4.9957	1.0791	0.	124.23
536	-2.0134	3.9461	0.	127.33
537	-2.0247	2.9673	0.	126.07
538	-2.0318	2.4675	0.	126.27
539	-1.1217e-002	1.0175	0.	123.43
540	3.0267	3.9863	0.	129.04
541	3.0432	4.4818	0.	129.81
542	1.4796	1.0181	0.	125.79
543	2.9995	2.5076	0.	129.35
544	3.0071	2.9996	0.	128.69
545	-6.0367	-6.9852	0.	124.04
546	-6.0545	-6.4774	0.	123.62
547	4.6343	-5.1417	0.	125.82
548	4.556	-5.6216	0.	126.98
549	6.4585	-7.0986	0.	121.45
550	3.4601	-6.5244	0.	127.9
551	1.3251	-5.1618	0.	122.29
552	-5.5899	-5.9664	0.	122.9
553	-5.1009	-5.9719	0.	124.45
554	-6.6106	-4.4569	0.	122.87
555	-6.5805	-4.9539	0.	121.65
556	-6.5005	5.4838	0.	123.23
557	-4.5963	3.8686	0.	126.65
558	-4.5992	3.3896	0.	126.84
559	-6.3843e-002	-5.9838	0.	129.42
560	5.0539	-3.2436	0.	128.48
561	4.9661	-3.725	0.	127.82
562	-5.3079	-0.25987	0.	126.02
563	-5.2378	0.13885	0.	126.7
564	-4.1137	-5.9982	0.	128.29
565	-4.0891	-6.4892	0.	128.34
566	-0.89722	-5.844	0.	133.2
567	-1.4333	4.9613	0.	131.53
568	6.7206	-1.9377	0.	118.98
569	7.1735	-1.934	0.	116.53
570	-2.4646	7.6234	0.	128.66
571	-2.9585	7.5931	0.	127.58
572	-3.4556	7.5613	0.	126.8
573	-3.955	7.5226	0.	126.25
574	-4.4551	7.4823	0.	125.81
575	-4.9588	7.4654	0.	125.36
576	-5.4662	7.4654	0.	124.83
577	-5.9739	7.4723	0.	124.19
578	-6.4796	7.4819	0.	123.55
579	-6.9845	7.4916	0.	123.07
580	-3.4655	-2.0951	0.	128.33
581	-3.508	-2.6014	0.	127.43
582	-1.5695	5.41	0.	131.52
583	5.9755	0.63364	0.	122.56
584	-7.4928	6.0215	0.	119.36
585	-7.4898	6.5097	0.	120.93
586	-7.4887	7.0026	0.	122.07
587	-7.4888	7.4987	0.	122.95
588	6.9724	-7.5652	0.	120.59
589	6.4686	-7.5732	0.	122.
590	5.9658	-7.5746	0.	124.09
591	5.464	-7.5697	0.	125.82
592	4.9595	-7.5594	0.	126.76
593	4.4569	-7.5461	0.	127.01
594	3.9551	-7.5318	0.	126.88
595	3.4561	-7.5203	0.	126.47
596	7.4663	-7.071	0.	119.4
597	7.4791	-7.5509	0.	120.79
598	-1.0075	-7.4546	0.	125.08
599	-3.5392	-7.4852	0.	126.59
600	-4.0382	-7.483	0.	126.76
601	-4.536	-7.4824	0.	126.22
602	-5.0324	-7.4838	0.	125.46
603	-5.5277	-7.4867	0.	124.79
604	-6.0224	-7.4902	0.	124.39
605	-7.0995	-4.0217	0.	128.89
606	-5.1906	0.58271	0.	126.22
607	1.8818	7.4172	0.	127.7
608	2.8723	7.4707	0.	126.36
609	3.3648	7.4898	0.	126.06
610	3.8609	7.503	0.	125.98
611	4.3662	7.5134	0.	126.17
612	-7.0475	-5.4836	0.	124.65
613	-0.5234	7.7165	0.	118.36
614	-2.4303	7.1587	0.	128.58
615	-4.7004e-002	7.7218	0.	118.92
616	0.13888	-3.943	0.	127.25
617	-0.17734	-5.5105	0.	126.87
618	-1.6937	-3.2716	0.	120.01
619	-0.28757	-3.3933	0.	128.32
620	-3.5504	-3.1053	0.	128.23
621	-2.1559	-3.2335	0.	119.29
622	-5.1604	1.0379	0.	125.98
623	3.564	4.9972	0.	130.67
624	5.5493	1.5758	0.	122.58
625	-1.5316	1.9758	0.	126.53
626	2.1205	5.4316	0.	128.06
627	5.224	-4.6984	0.	125.27
628	5.4622	-6.6181	0.	128.7
629	2.6962	-6.0038	0.	128.25
630	2.9641	-7.5199	0.	126.2
631	2.2036	-5.5951	0.	125.43
632	-5.7544	-1.1042	0.	118.37
633	-7.5391	-5.0012	0.	125.99
634	-7.5495	-4.5168	0.	127.63
635	-7.555	-4.05	0.	128.55
636	6.17	-2.3052	0.	123.13
637	7.664	-0.93815	0.	112.59
638	7.6603	-1.4268	0.	115.35
639	7.6353	-1.9131	0.	116.88
640	-5.7884	-0.68406	0.	121.72
641	-6.1352	-1.5903	0.	112.58
642	-1.5189	-7.4666	0.	123.12
643	-1.0954	-6.3602	0.	130.87
644	-2.5334	-7.4749	0.	123.32
645	-3.6152	-6.0179	0.	130.51
646	-7.7192	-1.1292	0.	124.4
647	-5.7716	-0.25601	0.	124.65
648	-5.7226	0.16923	0.	126.71
649	7.1255	-2.3988	0.	116.58
650	6.6474	-2.377	0.	119.21
651	5.5425	-3.2749	0.	128.49
652	-5.1101	3.3983	0.	126.62
653	-6.031	4.9457	0.	127.35
654	-6.5186	4.9882	0.	124.91
655	-5.6062	-5.4564	0.	121.31
656	-5.1155	-5.4702	0.	124.09
657	-7.1967	-1.3409	0.	123.53
658	-4.8195	-0.99954	0.	129.22
659	-7.4877	5.0754	0.	113.27
660	1.7301	-5.6542	0.	122.81
661	1.223	-5.6937	0.	120.48
662	2.9356	-7.0051	0.	127.83
663	2.9191	-6.4572	0.	128.96
664	5.9556	-6.6265	0.	126.5
665	6.4496	-6.626	0.	121.22
666	5.116	-5.1707	0.	125.47
667	-6.5276	-6.9898	0.	124.4
668	-6.5413	-6.4836	0.	124.5
669	2.4983	2.5045	0.	129.29
670	0.98941	1.5092	0.	123.41
671	1.6377	5.4177	0.	127.34
672	1.1474	5.4099	0.	127.23
673	2.5268	3.9766	0.	129.02
674	-0.5173	1.5077	0.	124.55
675	-1.2664e-002	1.5104	0.	122.5
676	-1.5166	2.9791	0.	125.6
677	-1.5246	2.4768	0.	126.32
678	-1.4668	4.4709	0.	129.1
679	-1.4937	3.974	0.	126.49
680	7.9639	1.6082	0.	122.48
681	4.4979	1.5414	0.	127.88
682	5.015	1.5542	0.	125.2
683	3.5071	3.0041	0.	129.1
684	3.5009	2.5112	0.	130.01
685	3.5425	4.496	0.	130.76
686	3.5257	3.9965	0.	129.58
687	4.6117	5.5289	0.	129.66
688	-5.1004	1.9682	0.	128.8
689	6.2837	-1.7591	0.	123.07
690	6.7507	-1.5337	0.	119.11
691	5.3191	-0.80788	0.	127.04
692	-4.0967	-4.0554	0.	132.07
693	-2.6179	-3.1934	0.	122.68
694	-1.2286	-3.3099	0.	124.31
695	-4.719e-002	-4.9665	0.	124.37
696	5.9639e-002	-4.4513	0.	126.05
697	0.89643	7.7346	0.	127.73
698	0.4241	7.7231	0.	124.19
699	1.7546	6.4088	0.	125.26
700	-2.3806	6.6979	0.	127.51
701	-2.3118	6.2424	0.	125.66
702	-1.0041	7.7031	0.	123.66
703	-1.4871	7.6825	0.	128.38
704	-3.1513	-5.593	0.	131.07
705	5.255	6.5527	0.	123.7
706	7.163	5.4605	0.	113.79
707	-6.5573	-1.7118	0.	118.87
708	-4.495	-3.0181	0.	128.23
709	2.475	-7.541	0.	124.77
710	7.3975	-6.1287	0.	113.2
711	5.7063	-4.7215	0.	125.23
712	-7.0109	-7.4969	0.	124.74
713	-5.6771	1.049	0.	124.23
714	5.9104	0.16587	0.	122.76
715	-2.1857	-3.7348	0.	114.99
716	-0.67878	-5.3758	0.	127.69
717	-8.1403	-1.3713	0.	126.85
718	-8.0436	-1.8822	0.	127.52
719	-8.1179	-2.4274	0.	125.36
720	-7.9775	-2.9517	0.	123.29
721	-7.975	-3.5032	0.	125.62
722	-8.016	-4.0098	0.	126.85
723	-8.0293	-4.5082	0.	126.58
724	-8.0284	-5.0037	0.	125.3
725	-7.5323	-5.4953	0.	125.07
726	-8.0211	-5.4999	0.	123.68
727	4.8839	7.5261	0.	127.32
728	8.0723	-2.3978	0.	120.79
729	8.1059	-1.9041	0.	120.02
730	8.1285	-1.3908	0.	119.74
731	8.1413	-0.8671	0.	120.9
732	-0.96511	-7.9708	0.	125.07
733	-1.4935	-7.9751	0.	123.94
734	-2.0078	-7.9766	0.	123.39
735	-2.5152	-7.979	0.	123.85
736	-3.0191	-7.982	0.	124.91
737	-3.521	-7.9846	0.	125.78
738	-4.0212	-7.9855	0.	126.1
739	-4.5201	-7.9865	0.	125.96
740	-5.018	-7.9882	0.	125.58
741	-5.5153	-7.9908	0.	125.21
742	-6.0123	-7.9937	0.	125.04
743	-6.5091	-7.9963	0.	125.24
744	-7.006	-7.9983	0.	126.37
745	7.487	-8.0349	0.	121.73
746	6.9816	-8.0461	0.	121.66
747	6.4774	-8.0528	0.	122.54
748	5.9733	-8.0534	0.	123.95
749	5.4703	-8.0497	0.	125.32
750	4.9683	-8.0425	0.	126.31
751	4.4677	-8.0331	0.	126.84
752	3.9692	-8.0243	0.	127.
753	3.4741	-8.0197	0.	126.96
754	2.9845	-8.0242	0.	126.73
755	2.501	-8.0379	0.	128.23
756	7.9499	-6.5632	0.	123.06
757	7.9778	-7.0434	0.	122.38
758	7.9863	-7.5321	0.	122.4
759	7.9918	-8.0227	0.	122.67
760	-8.2424	-0.49901	0.	126.6
761	-6.1393	0.59634	0.	126.89
762	-6.2618	-0.71237	0.	119.8
763	8.0284	-2.8478	0.	122.12
764	5.8445	-4.2589	0.	129.48
765	6.1039	-2.8148	0.	124.63
766	-0.55727	-6.916	0.	130.17
767	-7.0129	4.5715	0.	119.9
768	-4.5607	-3.516	0.	131.19
769	5.3475	7.0511	0.	126.6
770	-7.9958	6.0249	0.	120.43
771	-7.9947	6.5142	0.	121.62
772	-7.9928	7.0072	0.	122.56
773	-7.993	7.5028	0.	123.31
774	-7.9936	8.0002	0.	123.89
775	-7.4911	7.9971	0.	123.64
776	-6.9882	7.9919	0.	123.69
777	-6.4857	7.9856	0.	123.99
778	-5.9828	7.9798	0.	124.42
779	-5.4802	7.9768	0.	124.89
780	-4.9787	7.9799	0.	125.34
781	-4.4786	7.9929	0.	125.77
782	-3.9791	8.0165	0.	126.22
783	-3.4798	8.0428	0.	126.75
784	-2.9816	8.0682	0.	127.38
785	-2.485	8.0931	0.	127.97
786	-1.9903	8.1173	0.	128.02
787	-1.4972	8.1402	0.	126.65
788	-1.0073	8.1569	0.	123.74
789	-0.51858	8.1663	0.	121.24
790	-3.4032e-002	8.1678	0.	121.51
791	0.44439	8.1589	0.	124.08
792	0.91595	8.1264	0.	126.6
793	1.3991	7.9113	0.	128.1
794	1.9081	7.9397	0.	127.55
795	2.4142	7.958	0.	126.93
796	2.9149	7.9763	0.	126.51
797	3.413	7.9909	0.	126.35
798	3.9106	8.0015	0.	126.53
799	4.4132	8.0095	0.	127.22
800	4.9246	8.0189	0.	128.46
801	7.0027	7.9361	0.	113.97
802	7.9533	7.8463	0.	130.44
803	7.8326	7.1343	0.	141.64
804	-7.9927	5.5406	0.	118.87
805	0.83725	-6.3669	0.	119.4
806	2.2606	-6.0781	0.	128.42
807	6.918	-6.1478	0.	112.2
808	5.4722	-6.1449	0.	131.18
809	-7.0394	-5.9866	0.	125.62
810	2.0112	3.4838	0.	128.05
811	0.61329	4.9317	0.	123.3
812	2.0765	4.9413	0.	130.1
813	-1.024	1.9905	0.	126.65
814	8.0084	3.516	0.	122.06
815	7.9937	2.0725	0.	123.17
816	6.6033	5.0529	0.	109.67
817	8.0588	4.9998	0.	129.96
818	3.9977	2.0211	0.	130.88
819	4.0129	3.5041	0.	128.88
820	4.069	5.0117	0.	132.15
821	-5.587	2.4475	0.	133.57
822	7.2012	-1.0152	0.	112.49
823	5.7701	-1.2744	0.	127.58
824	6.0475	1.1134	0.	123.
825	-3.5833	-5.078	0.	126.21
826	-0.33841	-3.8943	0.	130.05
827	-1.9458	7.195	0.	131.17
828	-0.99693	7.2536	0.	124.73
829	-1.4683	7.2293	0.	132.35
830	-1.9008	6.7394	0.	129.26
831	-1.827	6.2892	0.	127.4
832	1.2479	6.3798	0.	126.
833	0.89552	7.3105	0.	130.96
834	-0.51982	-4.8924	0.	126.83
835	-0.41278	-4.3949	0.	128.77
836	-0.80786	-3.8466	0.	131.33
837	-1.2707	-3.8062	0.	125.89
838	-2.6447	-3.6967	0.	123.14
839	-3.6013	-4.1049	0.	133.09
840	-3.5934	-4.5991	0.	131.49
841	6.1304	1.629	0.	122.86
842	5.8517	-0.30465	0.	126.5
843	5.8041	-0.78286	0.	128.44
844	6.2595	-1.2254	0.	126.04
845	6.7335	-1.1097	0.	120.41
846	-5.624	1.5059	0.	128.3
847	5.0804	5.028	0.	129.13
848	4.5752	5.0214	0.	132.06
849	4.0435	4.5073	0.	132.87
850	4.0238	4.0044	0.	131.1
851	4.0022	2.5119	0.	131.57
852	4.5024	2.0251	0.	130.41
853	5.0078	2.0337	0.	126.32
854	8.0328	4.5019	0.	127.64
855	7.0916	5.0016	0.	114.64
856	7.4947	2.1122	0.	117.31
857	8.0103	3.0286	0.	122.73
858	-0.98192	3.9891	0.	125.03
859	-1.0181	2.4874	0.	126.95
860	-1.0674e-002	2.0043	0.	121.33
861	2.0249	3.9717	0.	129.83
862	2.0442	4.4563	0.	131.04
863	1.1004	4.9342	0.	127.4
864	0.99296	2.0054	0.	122.49
865	1.9973	2.502	0.	129.92
866	2.0039	2.9946	0.	129.11
867	-7.0188	-6.9941	0.	125.89
868	-7.029	-6.4903	0.	126.52
869	-8.016	-5.9986	0.	122.19
870	5.5843	-5.1935	0.	127.59
871	5.5092	-5.6693	0.	130.51
872	5.9561	-6.1563	0.	130.46
873	6.4411	-6.1558	0.	121.82
874	8.2923	-6.0281	0.	131.32
875	2.4347	-7.0428	0.	129.59
876	1.7821	-6.1429	0.	123.29
877	-7.982	5.0581	0.	116.7
878	-4.4325	-2.5171	0.	130.77
879	-4.8263	-1.4988	0.	132.67
880	-6.9978	-1.8456	0.	127.46
881	-7.6123	-2.6629	0.	124.06
882	-7.5007	-3.0857	0.	126.02
883	7.6208	5.4786	0.	125.03
884	5.1721	6.0473	0.	127.49
885	6.0991	5.0487	0.	115.2
886	5.4449	8.0289	0.	130.43
887	5.4222	7.5406	0.	128.72
888	-4.6172	-4.5036	0.	131.27
889	-4.6046	-4.0114	0.	131.52
890	-5.6175	-4.9451	0.	119.37
891	-6.0701	4.434	0.	129.72
892	-6.5502	4.4843	0.	126.63
893	-6.0622	2.4416	0.	136.99
894	-5.6102	3.9013	0.	126.25
895	0.37607	-6.8364	0.	132.09
896	-7.6926e-002	-6.8895	0.	133.38
897	-0.50029	-7.4221	0.	126.07
898	6.0446	-3.3098	0.	127.68
899	5.9668	-3.7912	0.	128.61
900	8.2341	-3.7008	0.	127.87
901	6.5969	-2.8576	0.	119.1
902	7.568	-2.864	0.	117.29
903	7.0884	-2.8777	0.	115.66
904	-6.2494	-0.26258	0.	123.78
905	-8.1471	-2.0352e-002	0.	127.6
906	-7.2916	-0.79317	0.	118.85
907	-3.114	-6.0333	0.	131.81
908	-3.084	-6.4977	0.	130.39
909	-2.5535	-6.9767	0.	123.01
910	-6.1452	-4.328	0.	112.89
911	8.3486	7.4259	0.	131.06
912	8.5072	3.5112	0.	124.69
913	8.507	3.0182	0.	124.85
914	8.4953	2.0309	0.	128.4
915	8.4819	1.525	0.	129.65
916	7.9957	-8.515	0.	122.99
917	7.4924	-8.523	0.	122.4
918	6.9882	-8.5317	0.	122.39
919	6.4849	-8.5362	0.	123.01
920	5.9821	-8.5371	0.	124.06
921	-0.97663	-8.4856	0.	126.52
922	-1.4895	-8.4825	0.	125.19
923	-1.9993	-8.4822	0.	124.52
924	-3.5099	-8.4874	0.	125.49
925	-4.0105	-8.489	0.	125.79
926	-4.5101	-8.4904	0.	125.84
927	-5.5074	-8.494	0.	125.67
928	-6.0061	-8.496	0.	125.76
929	8.6536	-0.80343	0.	128.75
930	8.5998	-1.3872	0.	125.08
931	8.576	-1.9226	0.	124.04
932	8.5472	-2.4492	0.	124.47
933	8.6133	-5.0439	0.	126.88
934	8.6637	-5.5188	0.	130.27
935	8.4916	-7.0141	0.	125.4
936	8.4954	-8.0122	0.	123.96
937	-7.9956	8.4991	0.	124.32
938	-4.9902	8.4889	0.	125.39
939	-4.4911	8.4977	0.	125.75
940	-3.9921	8.5121	0.	126.12
941	-3.4931	8.5294	0.	126.52
942	-2.9944	8.5476	0.	126.92
943	-1.9993	8.5837	0.	126.93
944	-1.5024	8.6019	0.	125.89
945	-1.912e-002	8.6179	0.	123.18
946	0.47234	8.6031	0.	124.52
947	0.96505	8.5585	0.	126.04
948	1.4527	8.4779	0.	126.91
949	4.4455	8.5066	0.	127.45
950	6.4803	8.51	0.	119.58
951	6.983	8.4706	0.	117.74
952	7.9771	8.4284	0.	127.61
953	8.4731	8.4498	0.	128.37
954	-8.5095	-5.9999	0.	119.55
955	-8.5165	-4.5007	0.	125.56
956	-8.5076	-3.9975	0.	125.54
957	-8.4928	-3.4895	0.	124.55
958	-8.504	-2.9746	0.	124.14
959	-8.5548	-1.9482	0.	126.5
960	-8.6093	-1.3107e-002	0.	129.56
961	-8.4525	0.48735	0.	129.74
962	-8.5252	1.0726	0.	126.92
963	-8.6985	1.5762	0.	128.65
964	-8.4815	4.576	0.	137.56
965	-8.4864	5.0494	0.	126.32
966	-8.4947	5.5338	0.	123.74
967	-8.4976	6.0223	0.	123.16
968	-8.4975	6.5138	0.	123.32
969	-8.4964	7.5039	0.	124.08
970	-8.4959	8.0018	0.	124.39
971	-2.5741	-6.4743	0.	124.6
972	-7.6534	-0.33272	0.	118.3
973	-7.1984	-0.22262	0.	113.
974	7.0773	-3.3748	0.	110.75
975	-1.191e-002	-7.3428	0.	129.15
976	7.4762e-002	-8.1634	0.	133.24
977	-6.1581	3.408	0.	122.68
978	-6.1184	3.9191	0.	129.35
979	-5.6224	-4.452	0.	117.23
980	-5.1275	-4.4697	0.	129.53
981	6.4736	8.0558	0.	116.93
982	5.9679	8.0415	0.	131.68
983	-9.0062	-5.4999	0.	123.84
984	-9.0076	-4.9998	0.	124.8
985	-9.0084	-4.4987	0.	125.22
986	-9.0046	-3.996	0.	125.06
987	-9.0001	-3.4918	0.	124.66
988	-9.008	-2.9881	0.	124.57
989	-9.0391	-1.978	0.	126.55
990	-9.0598	-1.4781	0.	127.71
991	-9.0866	-0.98351	0.	128.72
992	-9.0858	-0.48653	0.	129.59
993	-9.0546	1.3357e-002	0.	129.99
994	-9.0051	0.51236	0.	129.45
995	-9.0269	1.0137	0.	128.07
996	-9.0797	1.5011	0.	129.4
997	-8.9651	2.0116	0.	136.19
998	-9.0121	2.5608	0.	136.13
999	-9.0241	3.0751	0.	130.58
1000	-9.0198	3.575	0.	128.62
1001	-9.009	4.0658	0.	130.28
1002	-8.9964	4.5506	0.	131.59
1003	-8.9946	5.0355	0.	130.44
1004	-8.9973	5.5242	0.	127.39
1005	-8.9989	6.0162	0.	125.95
1006	-8.9992	6.5104	0.	125.34
1007	-8.9989	7.0062	0.	125.12
1008	-8.9984	7.5035	0.	125.05
1009	-8.9981	8.0017	0.	125.03
1010	-8.9982	8.5007	0.	125.01
1011	-8.4979	8.9999	0.	124.78
1012	-7.9971	8.999	0.	124.61
1013	-6.9957	8.9953	0.	124.58
1014	-6.495	8.9932	0.	124.72
1015	-5.9949	8.9917	0.	124.94
1016	-5.4953	8.9919	0.	125.2
1017	-4.9961	8.9943	0.	125.47
1018	-4.4971	8.9997	0.	125.75
1019	-3.9982	9.0081	0.	126.02
1020	-3.4993	9.0186	0.	126.28
1021	-3.0003	9.0301	0.	126.48
1022	-2.0029	9.0536	0.	126.25
1023	-1.5034	9.0667	0.	125.6
1024	-1.0052	9.074	0.	124.75
1025	-0.50699	9.0772	0.	124.17
1026	-8.4407e-003	9.074	0.	124.26
1027	0.48953	9.061	0.	124.95
1028	0.98651	9.0331	0.	125.79
1029	1.4809	8.9969	0.	126.4
1030	1.9758	8.9813	0.	126.63
1031	2.4734	8.9818	0.	126.63
1032	2.9724	8.9881	0.	126.58
1033	3.4713	8.9953	0.	126.59
1034	3.9696	9.0008	0.	126.73
1035	4.4674	9.0041	0.	126.99
1036	4.9703	9.0077	0.	127.18
1037	5.4749	9.0096	0.	126.67
1038	5.9804	9.0075	0.	124.57
1039	6.4867	8.9976	0.	121.57
1040	6.9864	8.985	0.	121.08
1041	7.4848	8.9687	0.	123.23
1042	7.985	8.9677	0.	125.51
1043	8.4826	8.9661	0.	126.41
1044	8.9786	8.4729	0.	127.43
1045	8.9642	7.9683	0.	128.21
1046	8.9392	7.4694	0.	128.25
1047	8.9932	6.9796	0.	126.14
1048	9.035	6.4861	0.	126.31
1049	9.0403	5.9971	0.	128.59
1050	9.0343	5.4997	0.	130.48
1051	9.0266	4.9997	0.	130.29
1052	9.0151	4.5029	0.	129.06
1053	9.008	4.0046	0.	127.71
1054	9.0049	3.5067	0.	127.
1055	8.9968	2.0121	0.	130.54
1056	8.9921	1.509	0.	132.84
1057	9.0075	1.0078	0.	132.6
1058	9.078	0.5215	0.	129.42
1059	8.9933	4.6632e-003	0.	133.89
1060	9.0819	-0.52069	0.	133.94
1061	9.1019	-0.9816	0.	130.52
1062	9.0651	-1.4536	0.	128.63
1063	9.0475	-1.9582	0.	127.49
1064	9.0285	-2.4687	0.	127.34
1065	9.0201	-2.9714	0.	127.89
1066	9.0513	-3.455	0.	128.26
1067	8.9199	-3.9531	0.	128.28
1068	9.0004	-4.496	0.	126.23
1069	9.0608	-5.0049	0.	124.98
1070	9.0929	-5.5045	0.	127.46
1071	9.0842	-6.0061	0.	128.92
1072	9.0234	-6.5064	0.	128.36
1073	9.0011	-7.0065	0.	126.79
1074	8.9974	-7.5067	0.	125.73
1075	8.9978	-8.0057	0.	125.17
1076	8.9989	-8.5041	0.	124.88
1077	8.4992	-9.0051	0.	123.95
1078	7.998	-9.0091	0.	123.26
1079	7.4961	-9.0139	0.	122.85
1080	6.9937	-9.0189	0.	122.88
1081	6.491	-9.0225	0.	123.38
1082	5.9891	-9.0232	0.	124.24
1083	5.488	-9.0207	0.	125.29
1084	4.9875	-9.0186	0.	126.35
1085	4.4888	-9.0141	0.	127.34
1086	3.9912	-9.0115	0.	128.26
1087	3.4946	-9.0115	0.	129.24
1088	2.9983	-9.016	0.	130.27
1089	2.5027	-9.0205	0.	131.66
1090	2.0033	-9.0241	0.	127.51
1091	0.99657	-9.0103	0.	115.72
1092	0.50042	-9.0518	0.	124.73
1093	2.807e-003	-9.0486	0.	129.12
1094	-0.9912	-8.996	0.	127.58
1095	-1.494	-8.9897	0.	126.28
1096	-1.9979	-8.9881	0.	125.49
1097	-2.5009	-8.9888	0.	125.18
1098	-3.0029	-8.9898	0.	125.25
1099	-3.504	-8.9913	0.	125.49
1100	-4.0045	-8.9927	0.	125.71
1101	-4.5044	-8.9939	0.	125.85
1102	-5.0039	-8.9951	0.	125.93
1103	-5.5033	-8.9963	0.	126.03
1104	-6.0027	-8.9976	0.	126.22
1105	-7.0012	-8.9996	0.	126.79
1106	-7.5007	-9.	0.	125.54
1107	-8.0004	-9.	0.	121.05
1108	-8.5002	-9.	0.	118.21
1109	-7.2426	-2.4932	0.	136.1
1110	-4.8505	-1.9851	0.	144.88
1111	-8.473	2.1937	0.	145.3
1112	1.8627	-6.6186	0.	133.67
1113	2.0149	-8.5434	0.	140.97
1114	8.2488	-5.5713	0.	142.39
1115	5.9727	-5.6863	0.	140.53
1116	-7.5016	-8.4999	0.	129.32
1117	-7.5196	-6.4952	0.	129.35
1118	-9.0052	-6.0001	0.	122.64
1119	1.4968	2.5014	0.	131.3
1120	1.5474	4.4558	0.	133.39
1121	-0.51231	2.4962	0.	128.51
1122	-0.43351	4.4717	0.	123.37
1123	7.5395	4.4992	0.	126.01
1124	4.5024	2.5141	0.	134.33
1125	4.5442	4.5138	0.	135.81
1126	6.2867	-0.73566	0.	131.73
1127	6.8925	1.9257	0.	123.72
1128	-0.87305	-4.3389	0.	138.22
1129	0.84539	6.846	0.	134.91
1130	-1.4349	6.7802	0.	139.08
1131	-0.34981	4.9171	0.	109.87
1132	-8.9987	9.0003	0.	124.99
1133	8.9858	8.9792	0.	126.19
1134	8.9996	-9.0027	0.	124.74
1135	-9.0001	-9.	0.	121.65
1136	5.7622	6.5698	0.	134.67
1137	5.9976	7.5643	0.	130.58
1138	5.8822	7.0733	0.	128.62
1139	8.1005	6.6122	0.	122.21
1140	6.1434	5.5685	0.	116.48
1141	6.702	5.6254	0.	105.55
1142	7.1822	5.8804	0.	107.28
1143	7.6473	5.9636	0.	132.65
1144	-6.8504	-2.3163	0.	135.4
1145	-6.3913	-2.1715	0.	110.38
1146	-5.3365	-1.9768	0.	121.09
1147	-5.8746	-1.9973	0.	108.76
1148	-4.8791	-2.4758	0.	130.11
1149	-4.9645	-2.9732	0.	139.8
1150	-5.1344	-3.9719	0.	133.66
1151	-5.0631	-3.4737	0.	129.67
1152	-7.1034	-2.9662	0.	125.02
1153	-6.8754	-3.4253	0.	137.48
1154	-6.5634	-3.9096	0.	123.41
1155	-7.9303	4.5649	0.	107.24
1156	-7.4972	4.282	0.	110.26
1157	-6.6134	3.9562	0.	129.68
1158	-7.0653	4.1071	0.	115.2
1159	-8.0003	2.3306	0.	110.59
1160	-7.5325	2.4874	0.	104.47
1161	-8.5134	4.1126	0.	131.75
1162	-8.5338	3.6306	0.	133.51
1163	-8.5466	3.137	0.	133.4
1164	-8.5422	2.6484	0.	140.43
1165	1.9369	-7.0852	0.	134.87
1166	2.0321	-8.0607	0.	128.95
1167	1.9943	-7.5694	0.	131.06
1168	1.509	-8.5373	0.	109.33
1169	0.52962	-8.2117	0.	136.95
1170	0.96662	-8.4653	0.	116.07
1171	1.3551	-6.7124	0.	104.93
1172	7.8284	-5.6299	0.	127.14
1173	7.3747	-5.6588	0.	107.2
1174	6.4328	-5.6892	0.	125.13
1175	6.9016	-5.6777	0.	106.76
1176	-8.0008	-8.5	0.	122.21
1177	-9.0001	-8.5	0.	122.88
1178	-8.5003	-8.5	0.	112.21
1179	-8.0117	-6.4988	0.	122.68
1180	-8.5067	-6.5	0.	112.87
1181	-9.0037	-6.5002	0.	123.4
1182	1.5011	2.9959	0.	130.45
1183	1.5061	3.4887	0.	130.8
1184	1.5193	3.9769	0.	131.74
1185	0.99611	2.5024	0.	123.34
1186	-7.4993e-003	2.5007	0.	121.63
1187	0.49455	2.5024	0.	111.86
1188	1.0507	4.4632	0.	127.33
1189	0.55567	4.4657	0.	113.71
1190	6.345e-002	4.4672	0.	116.84
1191	-0.48164	3.9869	0.	124.65
1192	-0.4983	3.4913	0.	126.39
1193	7.5092	3.0233	0.	122.86
1194	7.5056	3.5113	0.	123.77
1195	7.513	4.0045	0.	124.74
1196	4.5034	3.007	0.	132.7
1197	4.5179	4.0073	0.	133.95
1198	4.5075	3.5046	0.	132.52
1199	-7.5031	-7.9995	0.	128.74
1200	-7.5057	-7.4987	0.	128.78
1201	-7.5106	-6.9971	0.	128.6
1202	7.0536	2.4303	0.	120.27
1203	6.5048	2.5091	0.	116.21
1204	5.9959	2.5337	0.	118.54
1205	5.0018	2.5172	0.	128.14
1206	5.499	2.5255	0.	118.46
1207	7.0429	4.5046	0.	118.39
1208	6.5463	4.5209	0.	110.39
1209	6.0473	4.5233	0.	114.66
1210	5.5453	4.5189	0.	118.34
1211	5.0447	4.5155	0.	127.65
1212	6.5068	-3.8367	0.	127.51
1213	6.3493	-4.2962	0.	125.97
1214	6.1735	-4.7495	0.	140.8
1215	6.0249	-5.2124	0.	124.11
1216	8.1985	-5.1063	0.	123.08
1217	8.0508	-4.6554	0.	141.34
1218	7.8594	-4.2217	0.	125.21
1219	-6.5619	0.64763	0.	123.29
1220	-6.2349	1.0311	0.	135.15
1221	-6.1011	1.5166	0.	121.87
1222	-7.7269	0.18813	0.	124.66
1223	-7.9334	0.61163	0.	123.18
1224	-8.2108	1.397	0.	121.01
1225	-8.0726	1.0265	0.	136.39
1226	-7.9167	1.9478	0.	124.62
1227	-6.4905	1.9933	0.	131.74
1228	-6.9393	2.1367	0.	107.41
1229	-7.4497	2.0475	0.	96.018
1230	6.754	-0.65394	0.	122.96
1231	7.2059	-0.55017	0.	107.67
1232	7.6494	-0.44593	0.	111.95
1233	8.0958	-0.34348	0.	118.94
1234	6.3389	-0.26903	0.	127.09
1235	6.4091	0.18222	0.	128.78
1236	6.4865	0.62736	0.	129.03
1237	6.6829	1.5117	0.	129.79
1238	6.5697	1.0735	0.	123.51
1239	-3.0094	-5.1632	0.	136.58
1240	7.4129	1.6839	0.	109.2
1241	8.7069	0.46221	0.	127.99
1242	8.4645	0.96808	0.	138.7
1243	7.9667	1.1817	0.	115.83
1244	-2.6562	-4.2033	0.	127.93
1245	-1.3221	-4.3017	0.	132.8
1246	-1.765	-4.2697	0.	110.05
1247	-2.2076	-4.2382	0.	107.12
1248	-0.97331	-4.8165	0.	120.38
1249	-1.5502	-6.0571	0.	128.12
1250	-1.3581	-5.6692	0.	131.86
1251	-1.1492	-5.2562	0.	143.43
1252	-8.9696e-002	6.8339	0.	105.99
1253	-0.53719	6.8231	0.	106.74
1254	-0.98331	6.8072	0.	131.83
1255	-0.84325	5.0518	0.	128.35
1256	-1.367	6.3384	0.	119.74
1257	-1.0401	5.5061	0.	132.46
1258	-8.9993	9.5	0.	124.94
1259	-8.4989	9.4999	0.	124.84
1260	-7.9986	9.4994	0.	124.76
1261	-7.4982	9.4986	0.	124.74
1262	-6.9979	9.4976	0.	124.8
1263	-6.4978	9.4967	0.	124.92
1264	-5.9977	9.496	0.	125.11
1265	-5.4982	9.4964	0.	125.34
1266	-4.9988	9.4976	0.	125.59
1267	-4.4996	9.5002	0.	125.83
1268	-4.0003	9.5042	0.	126.04
1269	-3.501	9.5092	0.	126.19
1270	-3.0016	9.5147	0.	126.24
1271	-2.5022	9.5202	0.	126.14
1272	-2.0026	9.5264	0.	125.87
1273	-1.5026	9.533	0.	125.45
1274	-1.0029	9.5367	0.	125.
1275	-0.50305	9.5379	0.	124.73
1276	-2.6777e-003	9.5355	0.	124.8
1277	0.49732	9.5286	0.	125.19
1278	0.99638	9.5157	0.	125.72
1279	1.4939	9.501	0.	126.19
1280	2.4891	9.4918	0.	126.7
1281	2.9875	9.4942	0.	126.77
1282	3.4866	9.4976	0.	126.76
1283	3.9856	9.5003	0.	126.67
1284	4.4848	9.5021	0.	126.46
1285	4.9858	9.5033	0.	126.03
1286	5.4887	9.5043	0.	125.2
1287	5.9919	9.5026	0.	123.9
1288	6.4923	9.4978	0.	122.7
1289	6.9933	9.4905	0.	122.38
1290	7.493	9.4852	0.	123.11
1291	7.991	9.4823	0.	124.12
1292	8.4908	9.4836	0.	124.8
1293	8.9924	9.4891	0.	125.07
1294	9.4961	9.4946	0.	125.14
1295	9.4922	8.9904	0.	125.65
1296	9.488	8.4876	0.	126.04
1297	9.4815	7.9868	0.	126.11
1298	9.4778	7.4899	0.	125.63
1299	9.4958	6.9947	0.	125.2
1300	9.5133	6.497	0.	125.42
1301	9.5185	5.9984	0.	126.82
1302	9.5168	5.4991	0.	128.35
1303	9.5138	4.9988	0.	129.16
1304	9.5078	4.5008	0.	129.22
1305	9.5051	4.0014	0.	128.99
1306	9.5026	3.5026	0.	128.96
1307	9.5015	3.0035	0.	129.37
1308	9.5005	2.5043	0.	130.12
1309	9.4987	2.0049	0.	130.85
1310	9.4986	1.5058	0.	130.97
1311	9.5081	1.0071	0.	129.81
1312	9.5233	0.50547	0.	127.95
1313	9.5117	3.1788e-003	0.	129.21
1314	9.5339	-0.49551	0.	131.31
1315	9.5451	-0.99156	0.	131.63
1316	9.5337	-1.4859	0.	130.95
1317	9.5238	-1.9836	0.	130.28
1318	9.5152	-2.4843	0.	129.65
1319	9.5127	-2.9838	0.	128.99
1320	9.5098	-3.4845	0.	128.09
1321	9.4791	-3.9848	0.	126.73
1322	9.4981	-4.4887	0.	125.2
1323	9.5256	-4.9952	0.	124.66
1324	9.5401	-5.5003	0.	125.63
1325	9.5355	-6.0042	0.	127.
1326	9.5153	-6.5053	0.	127.46
1327	9.5031	-7.0044	0.	127.21
1328	9.4995	-7.5032	0.	126.7
1329	9.4992	-8.0025	0.	126.18
1330	9.4996	-8.5018	0.	125.75
1331	9.4999	-9.0011	0.	125.43
1332	9.5	-9.5006	0.	125.24
1333	9.	-9.5013	0.	124.67
1334	8.4998	-9.5025	0.	124.01
1335	7.9994	-9.5044	0.	123.43
1336	7.4985	-9.5066	0.	123.12
1337	6.9973	-9.5089	0.	123.17
1338	6.496	-9.5109	0.	123.62
1339	5.995	-9.5114	0.	124.4
1340	5.4944	-9.5101	0.	125.39
1341	4.9944	-9.509	0.	126.49
1342	4.4951	-9.5072	0.	127.61
1343	3.9964	-9.5061	0.	128.68
1344	3.4981	-9.5063	0.	129.6
1345	2.9999	-9.5081	0.	130.07
1346	2.5009	-9.51	0.	128.93
1347	2.0005	-9.5108	0.	125.11
1348	1.5	-9.5088	0.	120.01
1349	1.0006	-9.5099	0.	119.31
1350	0.5013	-9.5216	0.	122.94
1351	7.8462e-004	-9.5211	0.	126.82
1352	-0.49883	-9.509	0.	128.17
1353	-0.99791	-9.4997	0.	127.8
1354	-1.498	-9.4954	0.	126.9
1355	-1.999	-9.4941	0.	126.1
1356	-2.5	-9.4943	0.	125.63
1357	-3.0008	-9.4949	0.	125.49
1358	-3.5013	-9.4956	0.	125.56
1359	-4.0015	-9.4963	0.	125.72
1360	-4.5016	-9.497	0.	125.9
1361	-5.0014	-9.4976	0.	126.06
1362	-5.5012	-9.4982	0.	126.23
1363	-6.001	-9.4989	0.	126.38
1364	-6.5007	-9.4994	0.	126.36
1365	-7.0005	-9.4998	0.	125.77
1366	-7.5003	-9.5	0.	124.
1367	-8.0002	-9.5	0.	121.46
1368	-8.5001	-9.5	0.	120.33
1369	-9.0001	-9.5	0.	122.29
1370	-9.5	-9.5	0.	125.92
1371	-9.5	-9.	0.	126.99
1372	-9.5	-8.5	0.	130.6
1373	-9.5	-8.	0.	131.03
1374	-9.5	-7.5	0.	131.66
1375	-9.5004	-7.0001	0.	131.35
1376	-9.5016	-6.5002	0.	131.01
1377	-9.5023	-6.0001	0.	127.52
1378	-9.5029	-5.5	0.	126.38
1379	-9.5035	-4.9997	0.	125.84
1380	-9.5036	-4.499	0.	125.29
1381	-9.5025	-3.9975	0.	124.76
1382	-9.5014	-3.4968	0.	124.45
1383	-9.505	-2.9956	0.	124.62
1384	-9.5124	-2.4937	0.	125.42
1385	-9.5198	-1.9919	0.	126.69
1386	-9.5297	-1.4915	0.	128.1
1387	-9.5394	-0.99126	0.	129.33
1388	-9.5381	-0.49033	0.	130.12
1389	-9.5255	9.7693e-003	0.	130.27
1390	-9.5103	0.50795	0.	129.8
1391	-9.516	1.0053	0.	129.37
1392	-9.5224	1.5089	0.	130.06
1393	-9.4959	2.0148	0.	131.38
1394	-9.5017	2.5233	0.	131.23
1395	-9.5092	3.0315	0.	129.29
1396	-9.5089	3.5336	0.	128.12
1397	-9.5048	4.0306	0.	128.72
1398	-9.5002	4.5247	0.	129.93
1399	-9.4987	5.0181	0.	129.94
1400	-9.4992	5.5126	0.	129.18
1401	-9.4998	6.0085	0.	128.1
1402	-9.4999	6.5056	0.	127.2
1403	-9.4997	7.0035	0.	126.5
1404	-9.4994	7.502	0.	125.98
1405	-9.4993	8.0011	0.	125.6
1406	-9.4992	8.5005	0.	125.34
1407	-9.4994	9.0002	0.	125.16
1408	-9.4997	9.5001	0.	125.03
1409	0.13222	4.9382	0.	121.23
1410	0.2092	5.4337	0.	124.
1411	0.59867	5.8582	0.	132.93
1412	0.74743	6.3672	0.	118.73
1413	1.1729	5.8911	0.	122.9
1414	8.5659	6.0026	0.	131.43
1415	-2.027	-7.47	0.	122.09
1416	2.9472	8.4818	0.	126.56
1417	0.97752	0.5167	0.	124.73
1418	2.8054	6.9656	0.	126.23
1419	4.9896	-6.1263	0.	128.99
1420	0.95788	-0.49875	0.	125.49
1421	1.9513	4.396e-002	0.	126.49
1422	-7.4922	5.5417	0.	117.06
1423	-8.5889e-002	-6.4305	0.	131.95
1424	1.6654	5.9243	0.	125.48
1425	-2.4198	-0.66401	0.	126.83
1426	5.0388	-5.6473	0.	128.
1427	2.8649	-1.7823	0.	127.01
1428	-4.9969	5.3884	0.	126.9
1429	4.157	6.0196	0.	127.27
1430	-5.2921	-1.07	0.	123.95
1431	8.4961	-3.0009	0.	126.09
1432	-6.5674	-5.4648	0.	122.47
1433	5.6626	6.059	0.	126.39
1434	3.4457	8.4925	0.	126.54
1435	0.40878	7.2855	0.	125.72
1436	-6.6945	-1.2379	0.	119.31
1437	-6.2035	0.17758	0.	125.75
1438	8.5581	5.5008	0.	133.47
1439	-3.6203	-5.5469	0.	129.44
1440	-3.5882	-6.4989	0.	129.7
1441	0.84624	-6.9115	0.	128.69
1442	2.4552	0.54943	0.	127.41
1443	6.5606	-3.3489	0.	121.68
1444	4.9502	8.5125	0.	128.29
1445	-5.6238	3.4107	0.	126.53
1446	-5.1249	1.4998	0.	126.35
1447	2.4485	-1.8304	0.	126.75
1448	-0.76063	-3.3506	0.	127.6
1449	-8.4964	7.008	0.	123.69
1450	-6.0011	5.4525	0.	125.81
1451	-4.5589	-6.9808	0.	126.52
1452	-4.1093	1.476	0.	126.54
1453	-2.7348	5.75	0.	126.27
1454	-3.1194	-4.1561	0.	139.31
1455	6.4245	2.0543	0.	121.74
1456	-2.7116	-5.5695	0.	132.35
1457	-2.0512	-6.9633	0.	120.41
1458	4.4793	-8.5232	0.	127.01
1459	8.5128	4.0068	0.	126.15
1460	-4.358	-1.5097	0.	134.39
1461	1.8279	6.9081	0.	127.04
1462	-2.9255	-1.1292	0.	127.81
1463	-3.9109	7.0359	0.	126.2
1464	-8.3361	1.7814	0.	138.39
1465	-3.0855	4.8114	0.	127.27
1466	-5.489	8.4854	0.	125.04
1467	-3.0821	-3.1502	0.	126.41
1468	-1.7113	5.8484	0.	126.26
1469	8.0633	-3.2634	0.	125.23
1470	2.6786	-2.2505	0.	126.8
1471	-3.5691	3.3974	0.	126.7
1472	0.67364	5.3866	0.	125.79
1473	-4.7536	5.4076e-002	0.	127.47
1474	-3.8264	6.1374	0.	126.18
1475	-5.1015	3.8855	0.	126.67
1476	3.0931	5.4796	0.	128.75
1477	-7.4936	8.4969	0.	124.17
1478	-2.5013	9.0422	0.	126.51
1479	5.6264	5.5465	0.	134.69
1480	7.2025	-1.4739	0.	115.26
1481	-6.4907	8.4894	0.	124.39
1482	-5.5384	4.9138	0.	127.77
1483	-6.6949	0.22462	0.	124.67
1484	-5.2964	-1.5257	0.	123.65
1485	-3.0087	-8.4855	0.	124.99
1486	4.006	3.0067	0.	130.33
1487	1.5897	4.9368	0.	130.37
1488	-6.2901e-002	7.278	0.	114.97
1489	4.7406	6.5353	0.	124.68
1490	-5.9662	6.4591	0.	124.22
1491	4.5048	-6.1025	0.	127.92
1492	3.9879	1.5379	0.	129.18
1493	3.4934	2.0225	0.	130.09
1494	1.5739	-4.6728	0.	123.48
1495	2.2506	-2.9856	0.	126.12
1496	1.672	-2.5338	0.	126.25
1497	0.48943	1.5092	0.	121.65
1498	-8.5163	-5.001	0.	124.56
1499	7.5991	-2.3915	0.	117.57
1500	2.515	3.4876	0.	128.35
1501	3.5159	3.5002	0.	128.76
1502	3.4863	-8.5187	0.	128.22
1503	5.2799	-1.2936	0.	127.6
1504	-1.019	1.0096	0.	125.47
1505	-3.0947	-4.6562	0.	126.08
1506	-4.1083	-5.0308	0.	128.42
1507	1.729	-5.1695	0.	123.12
1508	0.62242	-3.9923	0.	125.58
1509	0.94673	-1.0478	0.	125.78
1510	3.9539	-4.0948	0.	126.32
1511	3.6993	-4.5315	0.	126.
1512	-7.5926	-1.5824	0.	127.08
1513	-1.625	-2.2737	0.	123.37
1514	-7.003	-8.499	0.	127.39
1515	-3.0574	-6.9888	0.	126.89
1516	-0.50591	2.9934	0.	127.22
1517	-6.5555	-5.9754	0.	123.76
1518	-7.0682	2.6576	0.	107.78
1519	-4.3407	-1.0033	0.	131.32
1520	-8.5982	-1.4527	0.	127.43
1521	-8.6473	-0.48902	0.	128.88
1522	-3.5845	-3.6063	0.	131.35
1523	7.578	4.9914	0.	124.5
1524	1.3836	7.3796	0.	129.25
1525	1.4921	2.0071	0.	127.67
1526	-1.5897	-1.7757	0.	124.35
1527	-2.4961	8.5667	0.	127.16
1528	0.3562	-5.9404	0.	125.71
1529	7.586	-3.3347	0.	118.57
1530	-1.0073	8.6146	0.	124.28
1531	5.3674	-0.32613	0.	125.22
1532	8.5425	5.0006	0.	131.34
1533	8.0147	2.5477	0.	123.49
1534	-3.6252	0.97003	0.	126.93
1535	3.9817	-8.5186	0.	127.61
1536	2.9942	-8.5221	0.	129.31
1537	5.6166	-2.7792	0.	127.24
1538	2.5446	4.4661	0.	129.85
1539	-5.1206	-4.9702	0.	124.82
1540	-3.0773	1.4513	0.	126.66
1541	8.5057	2.5262	0.	126.34
1542	-7.462	4.6507	0.	109.81
1543	5.4624	-7.0927	0.	126.9
1544	2.4911	2.0139	0.	129.39
1545	-0.5163	2.0003	0.	125.58
1546	0.43088	-4.9928	0.	123.61
1547	-6.4759	6.9797	0.	123.13
1548	-2.0748	-6.438	0.	116.05
1549	9.0041	3.0095	0.	127.37
1550	-0.51355	1.0191	0.	124.48
1551	2.373	-6.5532	0.	131.09
1552	-3.0369	-7.4846	0.	125.35
1553	4.1441	-5.099	0.	126.03
1554	8.5166	-4.5694	0.	126.72
1555	9.2527e-002	-7.7654	0.	125.48
1556	-6.0507	1.9816	0.	142.43
1557	-0.56416	-6.4227	0.	132.39
1558	8.1032	6.0247	0.	142.39
1559	-1.594	-6.48	0.	121.84
1560	-3.9721	-2.5574	0.	128.43
1561	-4.0676	-3.5598	0.	130.6
1562	-2.5054	-8.4837	0.	124.54
1563	-0.53008	7.2694	0.	113.56
1564	-1.2195	5.9206	0.	141.34
1565	2.5704	4.9588	0.	129.6
1566	-4.8615	-0.47028	0.	127.78
1567	-3.5728	3.8681	0.	126.84
1568	-5.0802	4.3795	0.	127.2
1569	-9.0262	-2.4819	0.	125.32
1570	-2.5457	-2.1848	0.	124.55
1571	4.9614	-7.0805	0.	127.6
1572	1.9839	1.5181	0.	128.06
1573	-2.9192	7.1254	0.	127.34
1574	2.5062	2.9968	0.	128.55
1575	-7.4042	-2.032	0.	131.1
1576	-4.6184	-5.4886	0.	126.49
1577	2.1649	5.9388	0.	126.34
1578	-0.61553	-1.3688	0.	125.14
1579	-6.6107	2.8453	0.	129.24
1580	1.3003	-6.2297	0.	117.96
1581	-0.47095	-8.5076	0.	129.28
1582	-2.0062	4.4249	0.	128.8
1583	-2.5383	4.3843	0.	127.99
1584	-7.0004	5.0425	0.	118.99
1585	5.4574	-3.7562	0.	129.06
1586	5.9621	-7.0987	0.	124.75
1587	8.6879	-5.9753	0.	132.01
1588	-2.8184	-0.14466	0.	127.53
1589	-3.5675	2.9212	0.	126.62
1590	1.4984	-9.0172	0.	118.11
1591	-4.9376	5.9015	0.	126.3
1592	-2.2175	5.7939	0.	126.58
1593	5.5897	5.0351	0.	123.51
1594	8.4975	-8.5089	0.	123.91
1595	-4.595	2.9136	0.	127.34
1596	-4.1169	-5.5144	0.	127.7
1597	-6.7557	-0.75	0.	118.19
1598	-6.5171	-7.4935	0.	124.48
1599	8.541	-0.22213	0.	136.94
1600	2.9915	2.0183	0.	129.59
1601	-2.81	6.2026	0.	126.11
1602	8.5755	6.4706	0.	127.1
1603	-6.5048	-8.4977	0.	126.23
1604	-1.011	2.9866	0.	125.73
1605	3.2171	-2.2589	0.	127.19
1606	0.48439	-8.6167	0.	129.24
1607	-6.1129	2.9163	0.	131.8
1608	8.3814	-4.1129	0.	130.06
1609	1.9912	2.0102	0.	129.3
1610	5.7461	-1.7753	0.	126.36
1611	3.4466	0.5725	0.	127.52
1612	-1.7286	-3.7696	0.	116.92
1613	0.36736	6.8405	0.	133.41
1614	7.8673	-6.0951	0.	123.6
1615	3.4453	-7.0201	0.	127.18
1616	-1.6571	-2.772	0.	122.04
1617	-1.0006	3.4867	0.	123.89
1618	2.5042	-8.5316	0.	131.81
1619	7.4394	-6.5977	0.	117.13
1620	-1.9734	7.656	0.	129.54
1621	-8.5477	-2.4569	0.	125.05
1622	5.9788	2.0859	0.	120.23
1623	-5.0094	-8.4919	0.	125.75
1624	-7.4029	-3.5827	0.	129.1
1625	4.1048	5.5161	0.	129.76
1626	-5.3307	-0.65524	0.	124.87
1627	5.1211	5.5378	0.	129.81
1628	-4.3216	-0.49604	0.	129.5
1629	1.6244	-4.0935	0.	124.52
1630	2.1614	-2.4317	0.	126.43
1631	0.70393	-2.9775	0.	126.49
1632	0.90235	-5.0445	0.	122.5
1633	7.6574	-3.7976	0.	125.13
1634	-2.5616	1.4433	0.	126.62
1635	1.9906	9.4929	0.	126.52
1636	-5.9786	5.9558	0.	124.72
1637	-1.0521	-6.9225	0.	127.05
1638	-2.6065	-5.9941	0.	132.48
1639	-3.5607	-6.9915	0.	128.09
1640	5.4797	-8.5342	0.	125.21
1641	1.3312	6.8763	0.	128.32
1642	1.9461	8.4629	0.	127.03
1643	1.4864	1.513	0.	126.18
1644	2.7217	-2.7411	0.	126.59
1645	-5.5867	1.9751	0.	131.81
1646	5.4165	0.15026	0.	123.29
1647	-4.6931	0.53831	0.	126.74
1648	-4.389	-2.0145	0.	134.38
1649	1.3815e-002	-8.5852	0.	132.58
1650	6.9422	-6.6172	0.	116.37
1651	9.0021	2.5121	0.	128.7
1652	-7.4962	8.9974	0.	124.54
1653	-6.7333	-0.25317	0.	118.53
1654	-5.7321	-1.5342	0.	113.77
1655	-3.1096	-3.6528	0.	130.2
1656	-7.7636	-2.2594	0.	128.49
1657	-4.0818	2.915	0.	126.83
1658	7.4833	8.4725	0.	123.68
1659	4.7383	-4.6639	0.	125.44
1660	-3.8921	-1.5452	0.	131.65
1661	-6.105	-4.9138	0.	117.4
1662	6.9613	-7.0889	0.	118.95
1663	-2.507	-1.679	0.	125.7
1664	8.0157	4.0072	0.	124.76
1665	-6.5127	2.3956	0.	128.51
1666	5.9699	8.5215	0.	125.97
1667	0.45254	-7.2553	0.	133.35
1668	7.5387	2.5631	0.	123.28
1669	-5.0948	2.4426	0.	129.51
1670	8.5108	6.9215	0.	128.75
1671	-0.51317	8.62	0.	123.05
1672	8.0867	5.5002	0.	134.39
1673	-5.6068	2.9272	0.	129.24
1674	4.9789	-8.5304	0.	126.23
1675	3.9439	8.5005	0.	126.8
1676	0.98387	1.0142	0.	124.16
1677	-7.5267	-5.9944	0.	125.8
1678	8.4927	-7.5154	0.	124.33
1679	-8.6477	-0.96916	0.	127.98
1680	-6.5021	-8.9986	0.	126.52
1681	-5.9893	8.4862	0.	124.69
1682	0.78898	-5.9117	0.	121.73
1683	-1.5509	-6.958	0.	122.63
1684	-4.0217	-3.0609	0.	128.54
1685	-5.4976	5.4236	0.	126.77
1686	-0.93903	4.5	0.	125.94
1687	-4.6169	-4.9971	0.	127.98
1688	-6.086	-5.4484	0.	120.7
1689	-0.49238	-9.0132	0.	129.03
1690	5.5089	2.0507	0.	121.67
1691	-5.6808	0.60378	0.	127.13
1692	8.5	-6.5	0.	127.96
1693	2.4453	8.4703	0.	126.79
1694	-8.5133	-5.5005	0.	122.65
1695	-3.9284	-2.0523	0.	130.77
1696	0.49166	2.0054	0.	118.76
1697	-8.4967	8.5005	0.	124.63
1698	-5.5761	4.4061	0.	128.14
1699	4.6686	6.0337	0.	126.52
1700	5.4595	8.5181	0.	128.9
1701	8.6373	-3.5087	0.	128.71
1702	4.8179	7.0326	0.	125.14
1703	8.5251	4.503	0.	128.67
1704	-6.9921	8.4933	0.	124.2
1705	8.4676	7.9528	0.	130.16
1706	-6.2191	-1.1588	0.	116.76
1707	-1.5079	3.4761	0.	125.41
1708	-6.9943	5.5205	0.	119.52
1709	3.6523	-5.0515	0.	126.24
1710	-4.5041	5.3378	0.	126.76
1711	-5.102	2.9204	0.	128.37
1712	5.3489	-4.2252	0.	127.16
1713	-1.0256	1.4964	0.	125.89
1714	4.2541	-1.7897	0.	127.8
1715	-4.1906	0.5004	0.	127.28
1716	-3.0524	3.4119	0.	126.73
1717	-3.0537	3.8853	0.	127.06
1718	-0.56338	-0.88951	0.	125.12
1719	-4.606	-5.9841	0.	126.4
1720	-2.0222	4.8946	0.	129.79
1721	-4.1028	-4.5476	0.	129.95
1722	-7.8975	-0.6967	0.	123.91
1723	-0.39947	-7.9625	0.	126.09
1724	5.5199	1.1012	0.	122.59
1725	5.4703	0.62666	0.	122.35
1726	3.1174	-3.6447	0.	126.21
1727	7.4379	7.5537	0.	125.58
1728	2.7235	6.4631	0.	126.35
1729	2.6517	5.9595	0.	127.05
1730	7.4766	8.0339	0.	124.8
1731	-8.2454	-0.92629	0.	126.64
1732	6.4917	7.36	0.	122.66
1733	6.7572	7.4228	0.	101.
1734	6.7864	7.778	0.	114.74
1735	6.5218	7.8379	0.	116.92
1736	6.2838	7.5921	0.	123.3
1737	6.1783	6.32	0.	145.2
1738	6.365	6.1233	0.	132.9
1739	6.1217	5.8142	0.	137.9
1740	5.8813	6.0595	0.	141.96
1741	7.5043	6.6356	0.	128.01
1742	7.425	6.3767	0.	136.45
1743	7.8953	6.5261	0.	147.11
1744	7.6687	6.2018	0.	151.61
1745	7.135	1.2337	0.	126.8
1746	7.3362	1.2988	0.	109.21
1747	6.9314	1.4759	0.	126.51
1748	7.2964	1.5619	0.	116.52
1749	6.865	-3.75e-003	0.	145.53
1750	7.0212	-0.145	0.	128.21
1751	6.787	-0.43197	0.	138.59
1752	6.5794	-0.23951	0.	139.92
1753	8.2738	0.45125	0.	129.36
1754	8.2288	0.245	0.	133.57
1755	8.5684	0.3861	0.	150.47
1756	8.4855	4.3935e-002	0.	154.69
1757	6.63	-5.2217	0.	140.59
1758	6.4983	-5.01	0.	140.02
1759	6.4064	-5.4596	0.	147.93
1760	6.2024	-5.2212	0.	147.33
1761	7.63	-5.1883	0.	140.92
1762	7.7483	-4.9683	0.	136.24
1763	7.8542	-5.405	0.	149.42
1764	8.0392	-5.1431	0.	147.66
1765	6.9717	-4.13	0.	106.42
1766	7.2217	-4.1217	0.	102.72
1767	7.0837	-3.6424	0.	108.81
1768	6.7984	-3.8733	0.	117.26
1769	7.3737	-3.8538	0.	116.02
1770	0.875	-7.8425	0.	117.79
1771	0.8325	-7.5825	0.	107.84
1772	0.57981	-7.9809	0.	146.53
1773	0.36126	-7.7577	0.	141.54
1774	0.54127	-7.5026	0.	145.05
1775	1.365	-8.0275	0.	118.28
1776	1.5675	-7.86	0.	146.5
1777	1.821	-8.0904	0.	141.04
1778	1.5595	-8.3287	0.	132.41
1779	1.2375	-7.2475	0.	93.853
1780	1.4825	-7.34	0.	136.48
1781	1.6885	-7.0826	0.	132.54
1782	1.3975	-6.8962	0.	118.05
1783	-1.955	-5.675	0.	101.71
1784	-2.165	-5.6617	0.	107.92
1785	-1.8101	-5.9536	0.	120.19
1786	-2.0724	-6.144	0.	114.24
1787	-2.3382	-5.922	0.	122.58
1788	-1.495	-4.975	0.	141.63
1789	-1.59	-4.7867	0.	139.86
1790	-1.351	-4.5508	0.	156.43
1791	-1.1767	-4.8082	0.	150.02
1792	-2.545	-4.9083	0.	148.04
1793	-2.43	-4.7333	0.	140.29
1794	-2.6481	-4.4617	0.	151.44
1795	-2.8673	-4.6881	0.	149.8
1796	6.5e-002	6.3933	0.	136.08
1797	0.17333	6.22	0.	142.98
1798	0.50871	6.3836	0.	145.02
1799	0.31868	6.6202	0.	152.76
1800	-0.755	6.3667	0.	138.22
1801	-0.85167	6.1867	0.	140.69
1802	-0.97165	6.5836	0.	153.74
1803	-1.1635	6.3492	0.	147.54
1804	-0.21333	5.5	0.	104.84
1805	-0.41833	5.4933	0.	99.799
1806	-0.32991	5.1186	0.	109.26
1807	-0.57663	5.1859	0.	118.49
1808	-5.04e-002	5.3768	0.	116.19
1809	-5.53	-2.455	0.	136.68
1810	-5.345	-2.6483	0.	148.9
1811	-5.3032	-2.1834	0.	142.99
1812	-5.0745	-2.4329	0.	146.75
1813	-6.57	-2.715	0.	133.79
1814	-6.645	-2.9733	0.	124.07
1815	-6.8402	-2.5481	0.	152.1
1816	-6.9667	-2.8731	0.	147.68
1817	-5.645	-3.6817	0.	123.27
1818	-5.905	-3.7467	0.	101.36
1819	-5.9326	-4.134	0.	114.51
1820	-5.6712	-4.196	0.	117.31
1821	-5.4272	-3.9559	0.	125.24
1822	-6.955	3.5183	0.	113.79
1823	-6.9667	3.2633	0.	113.92
1824	-6.4491	3.394	0.	136.8
1825	-6.6767	3.6681	0.	139.98
1826	-6.6753	3.1126	0.	139.67
1827	-7.815	4.0717	0.	113.69
1828	-8.0417	3.955	0.	140.87
1829	-7.9801	4.3874	0.	123.4
1830	-8.2717	4.1613	0.	134.48
1831	-7.8733	2.7967	0.	117.99
1832	-8.0883	2.935	0.	144.86
1833	-8.0501	2.5053	0.	128.49
1834	-8.3211	2.6642	0.	142.7
1835	-7.8133	1.3933	0.	130.3
1836	-7.6933	1.5983	0.	131.14
1837	-8.0704	1.4985	0.	140.46
1838	-7.9234	1.7739	0.	141.83
1839	-7.3467	0.56667	0.	101.61
1840	-7.11	0.565	0.	102.44
1841	-7.2142	6.8691e-002	0.	109.56
1842	-7.4784	0.27407	0.	115.37
1843	-6.9624	0.29231	0.	115.44
1844	-6.7467	1.5917	0.	135.06
1845	-6.63	1.385	0.	138.77
1846	-6.3056	1.5533	0.	145.11
1847	-6.5002	1.7917	0.	149.99
1848	5.	3.75	0.	140.84
1849	5.25	4.	0.	126.85
1850	4.759	4.0037	0.	135.03
1851	5.0223	4.2577	0.	132.15
1852	5.	3.25	0.	141.16
1853	5.25	3.	0.	127.34
1854	4.7517	3.0035	0.	134.71
1855	5.0009	2.7586	0.	132.75
1856	6.75	4.	0.	119.15
1857	7.	3.75	0.	131.97
1858	7.2565	4.0023	0.	125.87
1859	7.0214	4.2523	0.	123.03
1860	6.75	3.	0.	121.23
1861	7.	3.25	0.	132.95
1862	7.2546	3.0117	0.	125.97
1863	7.0268	2.7152	0.	125.06
1864	0.	3.75	0.	133.53
1865	0.25	4.	0.	119.21
1866	3.1725e-002	4.2336	0.	122.82
1867	-0.24082	3.9934	0.	126.23
1868	0.	3.25	0.	134.55
1869	0.25	3.	0.	119.89
1870	-3.7497e-003	2.7503	0.	126.14
1871	-0.25295	2.9967	0.	128.67
1872	0.75	4.	0.	122.13
1873	1.	3.75	0.	138.55
1874	1.2596	3.9885	0.	132.86
1875	1.0253	4.2316	0.	130.92
1876	0.75	3.	0.	121.35
1877	1.	3.25	0.	138.03
1878	1.2506	2.998	0.	131.69
1879	0.99805	2.7512	0.	128.47
1880	-9.	-7.25	0.	138.98
1881	-8.75	-7.	0.	122.36
1882	-9.0018	-6.7501	0.	128.68
1883	-9.2502	-7.0001	0.	132.32
1884	-9.	-7.75	0.	138.92
1885	-8.75	-8.	0.	122.13
1886	-9.0001	-8.25	0.	128.37
1887	-9.25	-8.	0.	132.09
1888	-8.25	-7.	0.	121.82
1889	-8.	-7.25	0.	137.2
1890	-8.0058	-6.7494	0.	127.84
1891	-7.7553	-6.9985	0.	130.46
1892	-8.25	-8.	0.	121.42
1893	-8.	-7.75	0.	136.97
1894	-8.0004	-8.25	0.	127.35
1895	-7.7515	-7.9998	0.	130.29
1896	9.75	10.	0.	124.98
1897	10.	9.75	0.	125.01
1898	-9.75	10.	0.	124.99
1899	-10.	9.75	0.	125.
1900	10.	-9.75	0.	125.43
1901	9.75	-10.	0.	125.27
1902	-10.	-9.75	0.	128.33
1903	-9.75	-10.	0.	126.83
1904	6.335	6.84	0.	132.98
1905	6.1477	7.0867	0.	128.94
1906	6.0094	6.5749	0.	134.19
1907	7.1315	7.0284	0.	87.098
1908	7.1911	7.3897	0.	106.34
1909	7.5756	6.9828	0.	112.84
1910	6.895	6.25	0.	105.1
1911	6.666	5.906	0.	105.65
1912	7.1711	6.0969	0.	104.47
1913	7.045	0.82125	0.	133.46
1914	6.8299	1.0505	0.	126.73
1915	6.955	0.40875	0.	137.89
1916	6.7432	0.62118	0.	132.52
1917	6.6596	0.19236	0.	133.87
1918	7.6487	1.0163	0.	98.735
1919	7.4527	1.4207	0.	101.87
1920	7.7296	1.1696	0.	105.12
1921	7.9612	0.73375	0.	94.16
1922	7.8858	1.0283	0.	109.16
1923	8.291	0.78029	0.	112.06
1924	7.4237	-1.5e-002	0.	106.88
1925	7.2142	-0.31509	0.	104.66
1926	7.8263	0.115	0.	103.41
1927	7.6372	-0.19796	0.	111.72
1928	8.0617	-8.1738e-002	0.	106.05
1929	7.13	-5.205	0.	110.85
1930	6.8908	-5.4455	0.	108.51
1931	7.3774	-5.4277	0.	108.41
1932	6.735	-4.57	0.	112.26
1933	6.3951	-4.7698	0.	125.87
1934	6.6013	-4.3231	0.	116.71
1935	7.485	-4.545	0.	103.86
1936	7.8337	-4.706	0.	121.28
1937	7.6064	-4.2775	0.	112.83
1938	1.0433	-8.2002	0.	95.601
1939	0.94062	-7.1632	0.	91.644
1940	1.7597	-7.5847	0.	136.
1941	-1.725	-5.325	0.	103.85
1942	-1.599	-5.5846	0.	112.62
1943	-1.3796	-5.2031	0.	124.32
1944	-2.355	-5.285	0.	118.67
1945	-2.4858	-5.5214	0.	118.83
1946	-2.7297	-5.1299	0.	130.24
1947	-2.01	-4.76	0.	104.54
1948	-1.7825	-4.5215	0.	104.78
1949	-2.2138	-4.4924	0.	106.51
1950	-0.345	6.38	0.	102.36
1951	-0.11485	6.6103	0.	103.12
1952	-0.54359	6.5982	0.	103.96
1953	-2.e-002	5.86	0.	113.72
1954	0.33767	5.9491	0.	124.39
1955	4.6267e-002	5.5568	0.	113.74
1956	-0.635	5.84	0.	104.48
1957	-0.98142	5.9669	0.	124.3
1958	-0.78338	5.5864	0.	112.68
1959	-6.05	-2.585	0.	103.7
1960	-5.8323	-2.2587	0.	108.05
1961	-6.3507	-2.4108	0.	103.36
1962	-5.495	-3.165	0.	133.91
1963	-5.1923	-2.9399	0.	137.34
1964	-5.3165	-3.4485	0.	129.7
1965	-6.275	-3.36	0.	83.529
1966	-6.6677	-3.296	0.	107.46
1967	-6.3267	-3.7315	0.	105.24
1968	-7.385	3.795	0.	82.913
1969	-7.1176	3.8819	0.	95.482
1970	-7.5486	4.1076	0.	98.305
1971	-7.42	3.03	0.	83.94
1972	-7.1308	2.9022	0.	91.77
1973	-7.5896	2.7004	0.	96.136
1974	-8.065	3.445	0.	144.28
1975	-8.2935	3.6653	0.	138.45
1976	-8.3116	3.1635	0.	139.27
1977	-7.58	0.98	0.	102.79
1978	-7.8846	1.1066	0.	118.87
1979	-7.6984	0.69248	0.	111.18
1980	-7.22	1.595	0.	102.75
1981	-7.4532	1.8221	0.	99.131
1982	-6.9613	1.865	0.	104.55
1983	-6.87	0.975	0.	108.43
1984	-6.776	0.70881	0.	112.06
1985	-6.4925	1.1055	0.	122.48
1986	4.7538	3.5023	0.	138.93
1987	5.75	4.	0.	118.6
1988	5.5227	4.2594	0.	117.99
1989	6.25	4.	0.	115.27
1990	6.0237	4.2617	0.	117.01
1991	6.5231	4.2604	0.	110.62
1992	5.75	3.	0.	119.92
1993	5.4995	2.7627	0.	118.18
1994	6.25	3.	0.	117.57
1995	5.998	2.7668	0.	120.08
1996	6.5024	2.7545	0.	114.69
1997	7.2528	3.5056	0.	130.14
1998	-0.24915	3.4956	0.	132.61
1999	0.52784	4.2329	0.	111.89
2000	0.49727	2.7512	0.	110.63
2001	1.253	3.4943	0.	136.85
2002	-9.25	-7.5	0.	137.99
2003	-8.5033	-6.75	0.	111.9
2004	-8.5002	-8.25	0.	111.39
2005	-7.7528	-7.4994	0.	135.32
2006	9.25	10.	0.	124.82
2007	9.498	9.7473	0.	125.05
2008	8.75	10.	0.	124.34
2009	8.9962	9.7445	0.	124.87
2010	8.25	10.	0.	123.51
2011	8.4954	9.7418	0.	124.4
2012	7.75	10.	0.	122.5
2013	7.9955	9.7411	0.	123.55
2014	7.25	10.	0.	121.72
2015	7.4965	9.7426	0.	122.53
2016	6.75	10.	0.	121.6
2017	6.9967	9.7453	0.	121.9
2018	6.25	10.	0.	122.3
2019	6.4961	9.7489	0.	122.21
2020	5.75	10.	0.	123.63
2021	5.996	9.7513	0.	123.37
2022	5.25	10.	0.	125.08
2023	5.4943	9.7521	0.	124.78
2024	4.75	10.	0.	126.24
2025	4.9929	9.7517	0.	125.9
2026	4.25	10.	0.	126.98
2027	4.4924	9.751	0.	126.59
2028	3.75	10.	0.	127.34
2029	3.9928	9.7501	0.	126.95
2030	3.25	10.	0.	127.45
2031	3.4933	9.7488	0.	127.1
2032	2.75	10.	0.	127.34
2033	2.9938	9.7471	0.	127.1
2034	2.25	10.	0.	127.06
2035	2.4945	9.7459	0.	126.97
2036	1.75	10.	0.	126.59
2037	1.9953	9.7464	0.	126.69
2038	1.25	10.	0.	125.98
2039	1.4969	9.7505	0.	126.25
2040	0.75	10.	0.	125.32
2041	0.99819	9.7579	0.	125.68
2042	0.25	10.	0.	124.78
2043	0.49866	9.7643	0.	125.09
2044	-0.25	10.	0.	124.51
2045	-1.3388e-003	9.7678	0.	124.68
2046	-0.75	10.	0.	124.61
2047	-0.50152	9.7689	0.	124.6
2048	-1.25	10.	0.	125.01
2049	-1.0014	9.7683	0.	124.87
2050	-1.75	10.	0.	125.55
2051	-1.5013	9.7665	0.	125.36
2052	-2.25	10.	0.	126.04
2053	-2.0013	9.7632	0.	125.85
2054	-2.75	10.	0.	126.36
2055	-2.5011	9.7601	0.	126.2
2056	-3.25	10.	0.	126.47
2057	-3.0008	9.7573	0.	126.35
2058	-3.75	10.	0.	126.39
2059	-3.5005	9.7546	0.	126.33
2060	-4.25	10.	0.	126.19
2061	-4.0001	9.7521	0.	126.18
2062	-4.75	10.	0.	125.91
2063	-4.4998	9.7501	0.	125.94
2064	-5.25	10.	0.	125.59
2065	-4.9994	9.7488	0.	125.67
2066	-5.75	10.	0.	125.29
2067	-5.4991	9.7482	0.	125.39
2068	-6.25	10.	0.	125.03
2069	-5.9988	9.748	0.	125.13
2070	-6.75	10.	0.	124.84
2071	-6.4989	9.7484	0.	124.92
2072	-7.25	10.	0.	124.73
2073	-6.999	9.7488	0.	124.78
2074	-7.75	10.	0.	124.72
2075	-7.4991	9.7493	0.	124.72
2076	-8.25	10.	0.	124.77
2077	-7.9993	9.7497	0.	124.74
2078	-8.75	10.	0.	124.87
2079	-8.4995	9.7499	0.	124.83
2080	-9.25	10.	0.	124.96
2081	-8.9997	9.75	0.	124.93
2082	-9.4998	9.75	0.	125.01
2083	10.	9.25	0.	125.16
2084	9.748	9.4973	0.	125.08
2085	10.	8.75	0.	125.34
2086	9.7461	8.9952	0.	125.47
2087	10.	8.25	0.	125.04
2088	9.744	8.4938	0.	125.71
2089	10.	7.75	0.	124.04
2090	9.7407	7.9934	0.	125.4
2091	10.	7.25	0.	122.81
2092	9.7389	7.4949	0.	124.5
2093	10.	6.75	0.	122.43
2094	9.7479	6.9974	0.	123.72
2095	10.	6.25	0.	123.69
2096	9.7567	6.4985	0.	124.01
2097	10.	5.75	0.	126.12
2098	9.7593	5.9992	0.	125.78
2099	10.	5.25	0.	128.43
2100	9.7584	5.4995	0.	127.91
2101	10.	4.75	0.	129.69
2102	9.7569	4.9994	0.	129.26
2103	10.	4.25	0.	130.01
2104	9.7539	4.5004	0.	129.62
2105	10.	3.75	0.	130.1
2106	9.7526	4.0007	0.	129.5
2107	10.	3.25	0.	130.57
2108	9.7513	3.5013	0.	129.58
2109	10.	2.75	0.	131.43
2110	9.7508	3.0018	0.	130.16
2111	10.	2.25	0.	131.97
2112	9.7502	2.5022	0.	131.02
2113	10.	1.75	0.	131.1
2114	9.7493	2.0025	0.	131.43
2115	10.	1.25	0.	128.39
2116	9.7493	1.5029	0.	130.57
2117	10.	0.75	0.	125.36
2118	9.754	1.0035	0.	128.19
2119	10.	0.25	0.	125.18
2120	9.7616	0.50273	0.	126.04
2121	10.	-0.25	0.	128.41
2122	9.7559	1.5894e-003	0.	127.7
2123	10.	-0.75	0.	132.03
2124	9.7669	-0.49776	0.	130.95
2125	10.	-1.25	0.	133.74
2126	9.7725	-0.99578	0.	132.54
2127	10.	-1.75	0.	133.7
2128	9.7669	-1.493	0.	132.48
2129	10.	-2.25	0.	132.82
2130	9.7619	-1.9918	0.	131.83
2131	10.	-2.75	0.	131.43
2132	9.7576	-2.4922	0.	130.95
2133	10.	-3.25	0.	129.4
2134	9.7564	-2.9919	0.	129.8
2135	10.	-3.75	0.	126.64
2136	9.7549	-3.4922	0.	128.13
2137	10.	-4.25	0.	123.72
2138	9.7395	-3.9924	0.	125.9
2139	10.	-4.75	0.	121.97
2140	9.7491	-4.4943	0.	123.77
2141	10.	-5.25	0.	122.46
2142	9.7628	-4.9976	0.	123.12
2143	10.	-5.75	0.	124.68
2144	9.7701	-5.5002	0.	124.47
2145	10.	-6.25	0.	126.94
2146	9.7678	-6.0021	0.	126.51
2147	10.	-6.75	0.	128.07
2148	9.7576	-6.5026	0.	127.66
2149	10.	-7.25	0.	128.07
2150	9.7516	-7.0022	0.	127.75
2151	10.	-7.75	0.	127.47
2152	9.7498	-7.5016	0.	127.27
2153	10.	-8.25	0.	126.73
2154	9.7496	-8.0012	0.	126.63
2155	10.	-8.75	0.	126.09
2156	9.7498	-8.5009	0.	126.05
2157	10.	-9.25	0.	125.65
2158	9.7499	-9.0006	0.	125.62
2159	9.75	-9.5003	0.	125.36
2160	-10.	9.25	0.	125.08
2161	-9.7498	9.5	0.	125.02
2162	-10.	8.75	0.	125.29
2163	-9.7497	9.0001	0.	125.15
2164	-10.	8.25	0.	125.66
2165	-9.7496	8.5003	0.	125.39
2166	-10.	7.75	0.	126.21
2167	-9.7496	8.0006	0.	125.74
2168	-10.	7.25	0.	127.01
2169	-9.7497	7.501	0.	126.26
2170	-10.	6.75	0.	128.11
2171	-9.7498	7.0017	0.	126.99
2172	-10.	6.25	0.	129.49
2173	-9.7499	6.5028	0.	127.97
2174	-10.	5.75	0.	130.84
2175	-9.7499	6.0043	0.	129.16
2176	-10.	5.25	0.	131.45
2177	-9.7496	5.5063	0.	130.31
2178	-10.	4.75	0.	130.42
2179	-9.7493	5.009	0.	130.7
2180	-10.	4.25	0.	127.85
2181	-9.7501	4.5123	0.	129.65
2182	-10.	3.75	0.	125.53
2183	-9.7524	4.0153	0.	127.51
2184	-10.	3.25	0.	125.49
2185	-9.7545	3.5168	0.	126.43
2186	-10.	2.75	0.	127.62
2187	-9.7546	3.0157	0.	127.75
2188	-10.	2.25	0.	129.59
2189	-9.7509	2.5116	0.	130.11
2190	-10.	1.75	0.	129.83
2191	-9.748	2.0074	0.	130.78
2192	-10.	1.25	0.	129.34
2193	-9.7612	1.5044	0.	129.77
2194	-10.	0.75	0.	129.73
2195	-9.758	1.0026	0.	129.29
2196	-10.	0.25	0.	130.88
2197	-9.7551	0.50397	0.	130.02
2198	-10.	-0.25	0.	131.68
2199	-9.7627	4.8846e-003	0.	130.9
2200	-10.	-0.75	0.	131.35
2201	-9.769	-0.49517	0.	130.98
2202	-10.	-1.25	0.	129.88
2203	-9.7697	-0.99563	0.	130.09
2204	-10.	-1.75	0.	127.74
2205	-9.7649	-1.4957	0.	128.5
2206	-10.	-2.25	0.	125.55
2207	-9.7599	-1.9959	0.	126.63
2208	-10.	-2.75	0.	123.91
2209	-9.7562	-2.4969	0.	124.96
2210	-10.	-3.25	0.	123.21
2211	-9.7525	-2.9978	0.	123.96
2212	-10.	-3.75	0.	123.48
2213	-9.7507	-3.4984	0.	123.79
2214	-10.	-4.25	0.	124.46
2215	-9.7512	-3.9988	0.	124.3
2216	-10.	-4.75	0.	125.9
2217	-9.7518	-4.4995	0.	125.18
2218	-10.	-5.25	0.	127.76
2219	-9.7517	-4.9999	0.	126.27
2220	-10.	-5.75	0.	130.1
2221	-9.7514	-5.5	0.	127.59
2222	-10.	-6.25	0.	131.7
2223	-9.7512	-6.	0.	129.44
2224	-10.	-6.75	0.	130.16
2225	-9.7508	-6.5001	0.	131.5
2226	-10.	-7.25	0.	126.33
2227	-9.7502	-7.0001	0.	129.81
2228	-10.	-7.75	0.	126.09
2229	-9.75	-7.5	0.	128.
2230	-10.	-8.25	0.	129.56
2231	-9.75	-8.	0.	129.42
2232	-10.	-8.75	0.	131.02
2233	-9.75	-8.5	0.	130.93
2234	-10.	-9.25	0.	129.74
2235	-9.75	-9.	0.	128.86
2236	-9.75	-9.5	0.	127.31
2237	-9.25	-10.	0.	124.14
2238	-9.5	-9.75	0.	125.82
2239	-8.75	-10.	0.	121.73
2240	-9.	-9.75	0.	122.42
2241	-8.25	-10.	0.	121.25
2242	-8.5001	-9.75	0.	120.61
2243	-7.75	-10.	0.	122.63
2244	-8.0001	-9.75	0.	121.52
2245	-7.25	-10.	0.	124.54
2246	-7.5002	-9.75	0.	123.83
2247	-6.75	-10.	0.	125.83
2248	-7.0002	-9.7499	0.	125.59
2249	-6.25	-10.	0.	126.32
2250	-6.5003	-9.7497	0.	126.3
2251	-5.75	-10.	0.	126.35
2252	-6.0005	-9.7494	0.	126.39
2253	-5.25	-10.	0.	126.2
2254	-5.5006	-9.7491	0.	126.26
2255	-4.75	-10.	0.	126.01
2256	-5.0007	-9.7488	0.	126.09
2257	-4.25	-10.	0.	125.83
2258	-4.5008	-9.7485	0.	125.91
2259	-3.75	-10.	0.	125.67
2260	-4.0008	-9.7482	0.	125.73
2261	-3.25	-10.	0.	125.59
2262	-3.5006	-9.7478	0.	125.58
2263	-2.75	-10.	0.	125.69
2264	-3.0004	-9.7474	0.	125.54
2265	-2.25	-10.	0.	126.05
2266	-2.5	-9.7472	0.	125.71
2267	-1.75	-10.	0.	126.69
2268	-1.9995	-9.747	0.	126.2
2269	-1.25	-10.	0.	127.44
2270	-1.499	-9.7477	0.	126.98
2271	-0.75	-10.	0.	127.8
2272	-0.99896	-9.7498	0.	127.8
2273	-0.25	-10.	0.	126.96
2274	-0.49941	-9.7545	0.	127.98
2275	0.25	-10.	0.	124.45
2276	3.9231e-004	-9.7605	0.	126.47
2277	0.75	-10.	0.	121.35
2278	0.50065	-9.7608	0.	122.85
2279	1.25	-10.	0.	120.34
2280	1.0003	-9.7549	0.	119.62
2281	1.75	-10.	0.	122.64
2282	1.5	-9.7544	0.	120.37
2283	2.25	-10.	0.	126.38
2284	2.0003	-9.7554	0.	124.81
2285	2.75	-10.	0.	129.
2286	2.5005	-9.755	0.	128.58
2287	3.25	-10.	0.	129.72
2288	3.	-9.754	0.	129.92
2289	3.75	-10.	0.	129.24
2290	3.4991	-9.7531	0.	129.63
2291	4.25	-10.	0.	128.25
2292	3.9982	-9.753	0.	128.74
2293	4.75	-10.	0.	127.12
2294	4.4976	-9.7536	0.	127.65
2295	5.25	-10.	0.	125.99
2296	4.9972	-9.7545	0.	126.52
2297	5.75	-10.	0.	124.94
2298	5.4972	-9.7551	0.	125.41
2299	6.25	-10.	0.	124.07
2300	5.9975	-9.7557	0.	124.42
2301	6.75	-10.	0.	123.47
2302	6.498	-9.7554	0.	123.65
2303	7.25	-10.	0.	123.23
2304	6.9987	-9.7545	0.	123.21
2305	7.75	-10.	0.	123.35
2306	7.4993	-9.7533	0.	123.16
2307	8.25	-10.	0.	123.76
2308	7.9997	-9.7522	0.	123.46
2309	8.75	-10.	0.	124.34
2310	8.4999	-9.7513	0.	124.02
2311	9.25	-10.	0.	124.91
2312	9.	-9.7507	0.	124.66
2313	9.5	-9.7503	0.	125.2
2314	1.8319	-1.9623	0.	126.44
2315	2.0219	-1.6792	0.	126.53
2316	2.2493	-1.88	0.	126.64
2317	2.1058	-2.1806	0.	126.48
2318	1.391	-2.0016	0.	126.3
2319	1.5827	-1.738	0.	126.32
2320	1.6428	-2.2644	0.	126.3
2321	2.2149	-1.3988	0.	126.65
2322	2.4344	-1.1318	0.	126.77
2323	2.6629	-1.3503	0.	126.89
2324	2.4423	-1.5996	0.	126.76
2325	1.7727	-1.4549	0.	126.4
2326	1.976	-1.1827	0.	126.49
2327	0.93948	-1.5153	0.	126.
2328	0.52723	-1.4401	0.	125.77
2329	0.73066	-1.7401	0.	126.03
2330	0.84443	-1.2752	0.	125.85
2331	1.1526	-1.768	0.	126.17
2332	0.94379	-1.9928	0.	126.2
2333	1.1795	-2.2573	0.	126.25
2334	-2.1473	-0.15123	0.	126.57
2335	-2.4909	9.3716e-002	0.	126.97
2336	-2.4072	-0.41208	0.	126.87
2337	-2.6065	-0.15241	0.	127.22
2338	2.1955	-0.91574	0.	126.62
2339	2.4328	-0.65561	0.	126.8
2340	2.6698	-0.88006	0.	126.88
2341	1.3443	-1.5045	0.	126.19
2342	1.0418	-1.2878	0.	125.94
2343	1.5129	-1.2311	0.	126.2
2344	2.673	-3.3984	0.	126.03
2345	2.9293	-3.1803	0.	126.44
2346	2.4762	-3.0794	0.	126.19
2347	2.7117	-2.9571	0.	126.43
2348	2.4053	-3.5918	0.	125.67
2349	2.6333	-3.8659	0.	125.62
2350	2.8808	-3.6342	0.	126.01
2351	-1.7357	-0.74961	0.	125.74
2352	-1.9315	-0.42169	0.	126.13
2353	-1.9864	-0.96003	0.	125.79
2354	-2.1914	-0.68255	0.	126.44
2355	-1.4777	-0.57747	0.	125.54
2356	-1.2727	-0.82724	0.	125.31
2357	-1.5305	-1.0397	0.	125.24
2358	2.8984	-1.0985	0.	127.
2359	3.12	-1.3275	0.	127.11
2360	2.8773	-1.557	0.	127.01
2361	0.36367	-1.1621	0.	125.53
2362	0.16569	-0.9301	0.	125.32
2363	0.43661	-0.70739	0.	125.28
2364	0.68087	-0.9972	0.	125.61
2365	1.7163	-0.95885	0.	126.29
2366	1.9527	-0.69171	0.	126.45
2367	3.1704	-2.9573	0.	126.8
2368	3.4265	-2.7265	0.	127.2
2369	3.2006	-2.493	0.	127.08
2370	2.9529	-2.7342	0.	126.78
2371	8.2323e-002	-1.3845	0.	125.52
2372	0.29061	-1.6478	0.	125.8
2373	3.3227	-1.5595	0.	127.24
2374	3.532	-1.795	0.	127.42
2375	3.08	-1.789	0.	127.15
2376	3.2561	-2.0273	0.	127.23
2377	-1.6736	-0.24955	0.	125.93
2378	-1.2197	-0.37403	0.	125.44
2379	-1.4477	-0.15052	0.	125.69
2380	2.6762	-0.40472	0.	126.92
2381	2.1899	-0.43159	0.	126.63
2382	2.437	-0.17585	0.	126.91
2383	0.49403	-1.9477	0.	126.06
2384	0.71731	-2.2254	0.	126.26
2385	3.6912	-2.4942	0.	127.5
2386	3.7411	-2.0284	0.	127.58
2387	3.9582	-2.2637	0.	127.77
2388	3.4652	-2.2607	0.	127.39
2389	-1.6742	-4.3262e-002	0.	125.99
2390	-1.9602	0.13568	0.	126.34
2391	2.9252	-0.15538	0.	127.12
2392	3.1774	8.9066e-002	0.	127.15
2393	2.686	7.3494e-002	0.	127.12
2394	2.9401	0.32227	0.	127.46
2395	3.3234	-4.1021	0.	126.02
2396	2.8623	-4.1123	0.	125.65
2397	3.1239	-4.3502	0.	125.87
2398	3.1098	-3.8807	0.	126.04
2399	-2.8699	0.3918	0.	127.23
2400	-3.127	0.68965	0.	127.19
2401	-3.2073	0.18451	0.	127.76
2402	-3.4148	0.456	0.	127.47
2403	1.4497	-3.0151	0.	126.01
2404	1.6878	-3.2843	0.	125.64
2405	1.9772	-3.0036	0.	126.02
2406	1.6879	-2.7777	0.	126.09
2407	1.1931	-2.7576	0.	126.17
2408	0.95301	-2.4899	0.	126.32
2409	1.4313	-2.5201	0.	126.26
2410	1.9191	-3.5535	0.	125.44
2411	2.1468	-3.8275	0.	125.21
2412	2.2085	-3.2728	0.	125.82
2413	-2.5807	0.63168	0.	126.91
2414	-2.3038	0.38062	0.	126.74
2415	-2.7028	0.10146	0.	127.28
2416	-3.8368	5.2377	0.	126.66
2417	-4.0656	5.0227	0.	126.75
2418	-3.9475	5.462	0.	126.52
2419	-4.279	5.2931	0.	126.71
2420	-3.6038	5.0074	0.	126.78
2421	-3.7304	5.4513	0.	126.52
2422	-3.3867	5.2467	0.	126.73
2423	-1.0146	-0.6238	0.	125.21
2424	-1.0619	-1.0943	0.	125.06
2425	-0.80019	-0.87293	0.	125.14
2426	2.9133	-0.62917	0.	127.
2427	3.1617	-0.38582	0.	126.98
2428	3.1445	-0.85806	0.	127.02
2429	-0.11566	-1.1525	0.	125.31
2430	-6.0548e-002	-0.67568	0.	125.09
2431	-0.32351	-0.90153	0.	125.16
2432	1.4649	-0.73	0.	126.03
2433	1.2104	-1.0144	0.	125.95
2434	-1.7812	-1.2501	0.	125.29
2435	-2.0299	-1.4725	0.	125.12
2436	-2.2378	-1.1954	0.	126.02
2437	3.3915	-3.1862	0.	126.84
2438	3.1371	-3.416	0.	126.42
2439	-0.17028	-1.6393	0.	125.53
2440	-0.38161	-1.3801	0.	125.27
2441	-1.3198	-1.3067	0.	124.99
2442	-1.5712	-1.5285	0.	124.69
2443	3.4139	-0.14137	0.	127.01
2444	3.6727	0.10128	0.	126.77
2445	3.4353	0.33415	0.	127.29
2446	3.3661	-1.0871	0.	127.13
2447	3.5856	-1.3206	0.	127.27
2448	-2.8378	0.92953	0.	126.87
2449	-3.3632	0.95666	0.	126.94
2450	-3.0893	1.1973	0.	126.8
2451	-3.8327	4.7924	0.	126.86
2452	-3.5836	4.56	0.	126.92
2453	-3.3368	4.7996	0.	127.08
2454	-0.75706	-0.40372	0.	125.14
2455	-0.98827	-0.16175	0.	125.26
2456	0.21037	-0.45297	0.	125.05
2457	0.46712	-0.22156	0.	124.92
2458	0.70804	-0.48344	0.	125.31
2459	1.7012	-0.46287	0.	126.19
2460	1.9491	-0.20142	0.	126.46
2461	3.6475	-2.9554	0.	127.24
2462	3.9114	-2.7284	0.	127.64
2463	3.5615	-3.8643	0.	126.38
2464	3.7493	-4.0912	0.	126.25
2465	3.6219	-4.3096	0.	126.09
2466	3.8005e-002	-1.9026	0.	125.81
2467	0.25804	-2.173	0.	126.19
2468	3.7949	-1.5561	0.	127.45
2469	4.0115	-1.792	0.	127.68
2470	-1.2163	6.1762e-002	0.	125.51
2471	-1.4779	0.27664	0.	125.84
2472	2.1962	5.4314e-002	0.	126.75
2473	2.4482	0.30705	0.	127.21
2474	2.3748	-4.1016	0.	125.16
2475	2.6287	-4.35	0.	125.38
2476	-3.507	-4.5377e-002	0.	128.26
2477	-3.3015	-0.32204	0.	128.47
2478	-3.0401	-0.10582	0.	127.81
2479	-3.7145	0.22611	0.	127.98
2480	-3.6511	0.72301	0.	127.22
2481	-3.9338	0.4882	0.	127.4
2482	-2.0684	-1.978	0.	124.06
2483	-1.8198	-1.7509	0.	124.52
2484	-2.2784	-1.7025	0.	125.19
2485	-2.4428	-0.91797	0.	126.66
2486	-2.6956	-1.1506	0.	127.15
2487	-2.4864	-1.4255	0.	126.09
2488	-3.1097	-0.60307	0.	128.34
2489	-2.649	-0.64652	0.	127.33
2490	-2.9019	-0.87913	0.	127.82
2491	-2.8483	-0.38685	0.	127.68
2492	1.1836	-3.2647	0.	125.83
2493	0.94978	-2.993	0.	126.28
2494	0.48131	-2.4507	0.	126.39
2495	0.70967	-2.7254	0.	126.43
2496	1.4217	-3.534	0.	125.47
2497	1.6481	-3.8203	0.	124.94
2498	4.1785	-2.498	0.	127.91
2499	4.4481	-2.2657	0.	128.04
2500	4.2286	-2.0273	0.	127.88
2501	-2.3116	0.92675	0.	126.64
2502	-2.568	1.1795	0.	126.7
2503	-2.0346	0.67569	0.	126.47
2504	-1.7639	0.45558	0.	126.19
2505	2.9579	0.80302	0.	128.05
2506	2.7023	0.55583	0.	127.55
2507	3.1979	0.56736	0.	127.61
2508	3.1471	-4.8195	0.	126.05
2509	2.8904	-4.5879	0.	125.6
2510	3.4224	-4.5576	0.	125.93
2511	-4.0811	4.5644	0.	126.82
2512	-4.319	4.8182	0.	126.9
2513	-4.1239	5.7625	0.	126.38
2514	-4.3629	6.1192	0.	126.23
2515	-4.6721	5.8755	0.	126.34
2516	-4.4554	5.5936	0.	126.57
2517	-3.5537	5.694	0.	126.34
2518	-3.8337	5.9065	0.	126.28
2519	-1.1071	-1.5763	0.	124.78
2520	-0.8512	-1.3505	0.	125.04
2521	3.3929	-0.61471	0.	127.
2522	3.6485	-0.37267	0.	126.78
2523	3.6228	-0.84602	0.	127.01
2524	-3.8321	4.3319	0.	126.88
2525	-3.3209	4.342	0.	127.13
2526	-3.576	4.1002	0.	126.89
2527	-0.27966	-0.427	0.	124.99
2528	-0.51323	-0.17849	0.	124.94
2529	-0.54262	-0.65285	0.	125.07
2530	-2.7363e-002	-0.19747	0.	124.79
2531	1.458	-0.22746	0.	125.88
2532	1.2067	-0.48884	0.	125.72
2533	-3.0526	2.6907	0.	126.49
2534	-2.7939	2.9428	0.	126.45
2535	-3.3095	2.9274	0.	126.57
2536	-3.0519	3.1728	0.	126.63
2537	3.6023	-3.413	0.	126.82
2538	3.8623	-3.1898	0.	127.29
2539	3.8068	-3.6455	0.	126.76
2540	3.3479	-3.6429	0.	126.4
2541	-0.42678	-1.8723	0.	125.41
2542	-0.20799	-2.1391	0.	125.89
2543	3.9073	-0.13002	0.	126.55
2544	3.9342	0.3442	0.	126.65
2545	4.1703	0.11185	0.	125.99
2546	3.8424	-1.0795	0.	127.16
2547	4.0617	-1.3147	0.	127.39
2548	-3.3188	1.9549	0.	126.54
2549	-3.0573	2.2015	0.	126.49
2550	-2.8048	1.9564	0.	126.5
2551	-3.069	1.7033	0.	126.59
2552	-0.74444	6.3482e-002	0.	125.06
2553	-0.99415	0.30013	0.	125.3
2554	0.22939	3.3946e-002	0.	124.67
2555	0.7226	1.9981e-002	0.	124.94
2556	0.48015	0.27214	0.	124.42
2557	2.1249	-4.3527	0.	124.68
2558	1.8759	-4.0943	0.	124.71
2559	-3.5729	2.1975	0.	126.57
2560	-3.3113	2.4441	0.	126.52
2561	-3.826	2.4386	0.	126.73
2562	-3.5682	2.6808	0.	126.6
2563	4.1261	-2.9629	0.	127.7
2564	4.3962	-2.736	0.	128.05
2565	3.5693	-5.7961	0.	127.33
2566	3.7767	-6.059	0.	127.62
2567	3.3235	-6.0161	0.	127.83
2568	3.4993	-6.2829	0.	127.8
2569	-4.0038	-7.7772e-003	0.	128.33
2570	-3.7852	-0.27617	0.	129.
2571	-2.8972	5.2838	0.	127.04
2572	-3.21	5.4895	0.	126.54
2573	-3.1197	5.0389	0.	127.03
2574	0.23581	-2.6812	0.	126.67
2575	1.2038e-002	-2.4095	0.	126.26
2576	0.92437	-3.501	0.	125.94
2577	1.1474	-3.7818	0.	125.13
2578	4.9386	-2.2696	0.	127.95
2579	4.7175	-2.0265	0.	128.01
2580	4.6659	-2.5037	0.	128.17
2581	-1.7896	0.96004	0.	126.3
2582	-2.048	1.1957	0.	126.5
2583	-1.5189	0.73993	0.	126.01
2584	-1.2557	0.51501	0.	125.62
2585	3.2163	1.0476	0.	128.37
2586	2.9738	1.2867	0.	128.78
2587	2.718	1.0396	0.	128.23
2588	2.9014	-5.0637	0.	125.98
2589	3.1417	-5.2925	0.	126.64
2590	3.4004	-5.0533	0.	126.24
2591	2.6447	-4.8321	0.	125.53
2592	2.3788	-4.6011	0.	124.9
2593	-3.5797	-0.55284	0.	129.22
2594	-3.3653	-0.82945	0.	129.12
2595	-4.0866	4.0963	0.	126.77
2596	-4.3346	4.3417	0.	126.85
2597	-0.89399	-1.8389	0.	124.88
2598	-0.67587	-2.1062	0.	125.25
2599	-0.63811	-1.6131	0.	125.15
2600	-1.1438	-2.0679	0.	124.42
2601	-1.3585	-1.798	0.	124.48
2602	3.8784	-0.60398	0.	126.79
2603	4.1383	-0.36129	0.	126.34
2604	4.1044	-0.83729	0.	126.9
2605	-3.5853	1.7099	0.	126.6
2606	-3.8515	1.4706	0.	126.59
2607	-3.6095	1.2176	0.	126.78
2608	-3.3355	1.4583	0.	126.65
2609	-3.8339	1.9559	0.	126.64
2610	-3.0741	4.5815	0.	127.29
2611	-2.8004	4.368	0.	127.65
2612	-3.0582	4.1185	0.	127.19
2613	-2.7974	2.4526	0.	126.42
2614	-0.26093	5.1042e-002	0.	124.74
2615	-0.50591	0.29793	0.	124.75
2616	-1.4378e-002	0.28568	0.	124.37
2617	1.2147	1.9468e-002	0.	125.48
2618	0.97334	0.26582	0.	124.94
2619	0.96352	-0.24191	0.	125.32
2620	1.4654	0.27318	0.	125.77
2621	1.7058	3.3978e-002	0.	126.15
2622	3.3674	-5.5404	0.	127.
2623	3.8367	-5.57	0.	126.89
2624	3.6262	-5.3012	0.	126.6
2625	4.0668	-3.4223	0.	127.23
2626	4.3358	-3.2062	0.	127.76
2627	4.2648	-3.6689	0.	127.13
2628	3.9946	-3.8723	0.	126.63
2629	-5.1741	6.4296	0.	125.54
2630	-5.4544	6.1856	0.	125.55
2631	-5.4474	6.6961	0.	125.08
2632	-5.7056	6.4497	0.	124.73
2633	-4.6112	6.404	0.	125.95
2634	-4.9162	6.6811	0.	125.67
2635	-4.9204	6.1603	0.	126.06
2636	-4.0794	6.4857	0.	126.1
2637	-4.3657	6.6728	0.	125.98
2638	-4.0727	6.2632	0.	126.13
2639	-2.6053	5.0742	0.	127.67
2640	-2.8278	4.8293	0.	127.66
2641	-2.5542	4.6158	0.	128.02
2642	-2.2961	4.871	0.	128.92
2643	3.1645	6.2379	0.	126.89
2644	3.3815	5.9954	0.	127.44
2645	3.1102	5.7327	0.	128.07
2646	2.8895	5.9727	0.	127.22
2647	-2.1041	-2.4806	0.	122.58
2648	-1.8559	-2.2518	0.	123.4
2649	-2.3163	-2.2074	0.	123.99
2650	4.2182	-6.5713	0.	127.83
2651	3.9903	-6.318	0.	127.6
2652	3.9581	-6.8012	0.	127.47
2653	3.7129	-6.5419	0.	127.78
2654	-4.5045	3.1144e-002	0.	127.85
2655	-4.2886	-0.24392	0.	128.86
2656	-4.223	0.2543	0.	127.75
2657	-3.1954	-1.6109	0.	128.28
2658	-2.9849	-1.8871	0.	126.79
2659	-2.945	-1.3815	0.	127.54
2660	-2.7358	-1.6564	0.	126.48
2661	-2.3747	5.3242	0.	127.92
2662	-2.6878	5.5255	0.	126.78
2663	3.4514	6.4991	0.	126.26
2664	3.2491	6.7398	0.	126.18
2665	2.9626	6.4765	0.	126.37
2666	0.20786	-3.1858	0.	127.17
2667	-1.3589e-002	-2.9134	0.	126.95
2668	0.46418	-2.9559	0.	126.71
2669	0.43423	-3.4591	0.	126.85
2670	0.64979	-3.7367	0.	125.94
2671	0.69055	-3.2293	0.	126.39
2672	5.2103	-2.0279	0.	127.7
2673	5.4334	-2.2758	0.	127.02
2674	5.1554	-2.5153	0.	128.
2675	4.9891	-1.7848	0.	127.75
2676	4.7648	-1.5458	0.	127.71
2677	4.4979	-1.7881	0.	127.85
2678	3.6684	6.2566	0.	126.81
2679	3.9594	6.5151	0.	125.79
2680	3.7465	6.7563	0.	125.88
2681	3.4745	1.2931	0.	128.84
2682	3.7182	1.0537	0.	128.03
2683	3.4564	0.81189	0.	127.93
2684	-1.533	1.2298	0.	126.22
2685	-1.2747	0.99595	0.	125.79
2686	-1.7913	1.4655	0.	126.43
2687	-2.0434	1.7085	0.	126.49
2688	-2.3044	1.4485	0.	126.56
2689	2.7315	1.5268	0.	128.99
2690	3.232	1.5323	0.	129.25
2691	2.9863	1.7739	0.	129.38
2692	2.4757	1.2797	0.	128.44
2693	2.222	1.0308	0.	127.63
2694	2.4624	0.7924	0.	127.73
2695	4.7195	-6.5933	0.	128.3
2696	4.4628	-6.8231	0.	127.75
2697	4.4878	-6.3429	0.	127.96
2698	2.6619	-5.3086	0.	126.25
2699	2.4142	-5.0892	0.	125.15
2700	2.9022	-5.5374	0.	126.91
2701	3.1217	-5.7603	0.	127.5
2702	-3.8396	-0.78345	0.	130.24
2703	-4.07	-0.51231	0.	129.54
2704	-3.6252	-1.0601	0.	130.14
2705	-3.4078	-1.3349	0.	129.34
2706	-3.1575	-1.1055	0.	128.6
2707	-4.8043	4.8591	0.	127.15
2708	-4.5724	4.5955	0.	126.92
2709	-4.5323	5.0886	0.	126.87
2710	4.3054	-4.3957	0.	126.07
2711	4.4366	-3.9269	0.	126.83
2712	4.617	-4.1837	0.	126.41
2713	4.1664	-4.1303	0.	126.32
2714	4.6059	-2.9794	0.	128.11
2715	4.8827	-2.7494	0.	128.22
2716	-4.0875	3.6246	0.	126.72
2717	-4.3422	3.8647	0.	126.69
2718	-3.8305	3.8645	0.	126.78
2719	-5.2007	5.9163	0.	126.08
2720	-5.7212	5.9434	0.	125.29
2721	-5.4807	5.6773	0.	126.31
2722	-6.4836	6.2284	0.	122.79
2723	-6.7325	6.4874	0.	122.15
2724	-6.223	6.4683	0.	123.52
2725	-6.4778	6.7286	0.	122.97
2726	2.1483	-4.8582	0.	124.52
2727	1.8482	-4.6415	0.	123.97
2728	4.0441	-5.8328	0.	127.19
2729	4.2598	-6.0895	0.	127.73
2730	3.9656	-4.5786	0.	125.91
2731	4.188	-4.8623	0.	125.92
2732	4.4851	-4.6448	0.	125.63
2733	1.7166	0.52853	0.	126.23
2734	1.9685	0.78045	0.	126.97
2735	1.957	0.28933	0.	126.61
2736	2.2089	0.54206	0.	127.07
2737	0.23639	0.52387	0.	124.12
2738	0.48622	0.76648	0.	123.65
2739	0.73089	0.51798	0.	124.42
2740	-0.75562	0.53458	0.	124.98
2741	-1.0115	0.77103	0.	125.4
2742	-2.5449	2.2075	0.	126.42
2743	-2.2942	1.9604	0.	126.47
2744	-2.5552	1.7004	0.	126.55
2745	-2.5349	3.6762	0.	127.
2746	-2.5357	3.1953	0.	126.53
2747	-2.2773	3.4497	0.	126.49
2748	-2.7937	3.4252	0.	126.71
2749	4.2007	0.5875	0.	126.16
2750	3.9586	0.81891	0.	127.26
2751	3.6968	0.57707	0.	127.16
2752	-4.087	2.197	0.	126.8
2753	-4.3382	2.4365	0.	127.28
2754	-4.0825	2.6758	0.	126.85
2755	-4.3961	1.0044	0.	126.44
2756	-4.1251	1.2348	0.	126.61
2757	-3.8831	0.98183	0.	126.81
2758	-4.1657	0.74701	0.	126.99
2759	4.3237	-1.0725	0.	127.12
2760	4.5451	-1.3083	0.	127.48
2761	4.2782	-1.5506	0.	127.62
2762	4.4014	-0.11942	0.	125.77
2763	4.4368	0.35516	0.	125.49
2764	4.6686	0.1254	0.	124.87
2765	-0.45708	-2.3729	0.	125.73
2766	-0.23736	-2.6417	0.	126.55
2767	1.0836	-4.3005	0.	124.09
2768	0.87279	-4.0175	0.	125.13
2769	1.3738	-4.0681	0.	124.6
2770	-3.2919	5.9387	0.	126.19
2771	-3.0005	5.7312	0.	126.28
2772	-3.5997	6.6034	0.	126.22
2773	-3.8754	6.8092	0.	126.16
2774	-3.8331	6.36	0.	126.16
2775	-3.3386	6.3946	0.	126.2
2776	-3.386	6.8567	0.	126.46
2777	-3.1144	6.6422	0.	126.45
2778	-3.572	6.1512	0.	126.14
2779	-3.0638	6.1838	0.	126.1
2780	-0.92572	-2.3351	0.	124.79
2781	-0.70687	-2.6041	0.	125.68
2782	-1.1762	-2.5641	0.	124.09
2783	-1.3927	-2.2945	0.	123.8
2784	4.3644	-0.5946	0.	126.44
2785	4.6303	-0.349	0.	125.77
2786	4.5885	-0.8282	0.	126.78
2787	-4.3453	1.9596	0.	126.99
2788	-4.1001	1.7167	0.	126.63
2789	4.7073	0.60033	0.	124.65
2790	4.4671	0.82879	0.	125.91
2791	4.9391	0.37058	0.	124.02
2792	4.978	0.84317	0.	124.01
2793	5.2153	0.61698	0.	123.07
2794	-2.2741	3.93	0.	127.32
2795	-2.5366	4.1491	0.	127.65
2796	-2.7943	3.8995	0.	127.18
2797	-2.5387	2.7047	0.	126.37
2798	-2.2806	2.9597	0.	126.22
2799	-2.2864	2.4625	0.	126.32
2800	-0.25936	0.53257	0.	124.39
2801	-0.51039	0.77788	0.	124.56
2802	-1.1353e-002	0.77302	0.	123.78
2803	1.4751	0.77023	0.	125.76
2804	1.224	0.51953	0.	125.23
2805	4.3147	-5.6053	0.	126.91
2806	4.1088	-5.344	0.	126.43
2807	0.79433	-4.5275	0.	123.93
2808	1.3089	-4.6155	0.	123.49
2809	0.97315	-4.8013	0.	123.
2810	-5.323	-6.4744	0.	124.43
2811	-5.5565	-6.7279	0.	124.13
2812	-5.8111	-6.476	0.	123.74
2813	-5.5788	-6.2204	0.	123.38
2814	-4.832	-6.4768	0.	125.8
2815	-5.0656	-6.7267	0.	125.16
2816	-5.0896	-6.2231	0.	124.72
2817	-6.7389	5.9923	0.	121.64
2818	-6.4941	5.7315	0.	122.99
2819	-6.2331	5.9675	0.	123.74
2820	-4.343	3.389	0.	126.78
2821	-3.8279	3.3929	0.	126.71
2822	-4.0843	3.1517	0.	126.77
2823	4.5338	-3.4529	0.	127.67
2824	4.8136	-3.2307	0.	128.24
2825	4.7303	-3.7065	0.	127.58
2826	-4.3373	-6.4843	0.	127.47
2827	-4.5722	-6.7301	0.	126.56
2828	-4.5958	-6.2318	0.	126.5
2829	-5.0225	5.1336	0.	127.11
2830	-5.2932	4.8964	0.	127.55
2831	-5.0642	4.6292	0.	127.26
2832	-4.1008	-1.0208	0.	131.1
2833	-3.8765	-1.2917	0.	131.27
2834	2.6829	-5.7744	0.	127.51
2835	2.4366	-5.5701	0.	126.1
2836	5.2152	-6.6108	0.	128.65
2837	4.9789	-6.3648	0.	128.79
2838	4.9648	-6.842	0.	128.1
2839	2.4865	1.7689	0.	129.11
2840	2.2329	1.521	0.	128.44
2841	2.3595	5.442	0.	128.2
2842	2.8458	5.466	0.	128.55
2843	2.5844	5.2056	0.	128.98
2844	2.6251	5.7059	0.	127.7
2845	-1.5336	1.7265	0.	126.43
2846	-1.2806	1.4868	0.	126.12
2847	3.7353	1.5364	0.	129.26
2848	3.4881	1.7787	0.	129.72
2849	3.6131	5.7526	0.	128.4
2850	3.8964	6.0123	0.	127.38
2851	3.5772	5.2487	0.	129.99
2852	3.3418	5.49	0.	129.03
2853	3.8476	5.5082	0.	129.53
2854	4.2575	6.7703	0.	125.34
2855	4.1873	6.2708	0.	126.36
2856	4.4792	6.5287	0.	125.07
2857	5.2582	-1.5384	0.	127.6
2858	5.4913	-1.7792	0.	126.98
2859	0.16509	-3.6901	0.	127.32
2860	-4.8141e-002	-3.4152	0.	127.86
2861	-5.7081	6.9584	0.	124.5
2862	-5.9701	7.2186	0.	124.14
2863	-5.9663	6.712	0.	124.15
2864	-6.2211	6.9723	0.	123.61
2865	-5.1896	6.9475	0.	125.21
2866	-5.4581	7.2087	0.	124.87
2867	-4.6707	6.9498	0.	125.69
2868	-4.9439	7.2042	0.	125.43
2869	-4.4337	7.2194	0.	125.85
2870	-4.1616	6.9962	0.	126.04
2871	-3.4341	7.3252	0.	126.71
2872	-3.6617	7.0625	0.	126.41
2873	-3.1658	7.1072	0.	126.98
2874	3.5442	6.997	0.	125.8
2875	3.3307	7.2397	0.	126.02
2876	3.051	6.9776	0.	126.1
2877	4.0446	7.0114	0.	125.43
2878	3.8264	7.2537	0.	125.8
2879	4.3318	7.266	0.	125.7
2880	4.5576	7.0256	0.	125.19
2881	-7.0644	-4.7394	0.	125.96
2882	-6.8186	-4.9695	0.	123.36
2883	-7.0521	-5.2344	0.	124.86
2884	-7.2979	-4.9932	0.	125.53
2885	-6.8414	-4.4753	0.	124.84
2886	-7.0858	-4.2577	0.	127.86
2887	-7.3108	-4.5053	0.	127.22
2888	-1.8391	5.3786	0.	130.04
2889	-2.1631	5.5706	0.	127.57
2890	-2.0654	5.1209	0.	129.17
2891	-3.4458	-1.8415	0.	128.81
2892	-3.6591	-1.5666	0.	130.47
2893	-6.9877	6.2513	0.	121.
2894	-7.2415	6.0134	0.	119.93
2895	-6.9922	5.7629	0.	120.01
2896	-6.9842	6.7451	0.	121.91
2897	-7.2376	6.5035	0.	121.2
2898	-6.9838	7.2422	0.	122.7
2899	-7.2359	6.9978	0.	122.2
2900	-6.7295	6.9863	0.	122.73
2901	5.9263	-2.292	0.	124.69
2902	5.6496	-2.529	0.	126.75
2903	5.7144	-2.0271	0.	126.31
2904	0.60572	-6.3849	0.	124.35
2905	0.37512	-6.6196	0.	130.7
2906	0.14415	-6.4167	0.	130.63
2907	0.36519	-6.1716	0.	127.51
2908	-0.2656	-5.9708	0.	130.43
2909	-0.68229	-5.901	0.	132.32
2910	-0.32235	-5.7342	0.	129.15
2911	-0.51576	-6.1903	0.	131.92
2912	5.0903	-3.0007	0.	128.35
2913	5.3716	-2.7685	0.	127.73
2914	-4.5902	4.1101	0.	126.76
2915	-4.8322	4.3656	0.	127.03
2916	0.57272	-5.4831	0.	123.15
2917	1.0103	-5.593	0.	121.32
2918	0.84995	-5.2684	0.	122.34
2919	0.79327	-5.702	0.	121.95
2920	2.1888	-5.3506	0.	125.01
2921	1.9516	-5.1378	0.	123.85
2922	2.9024	-5.9973	0.	128.11
2923	3.0138	-6.224	0.	128.46
2924	4.2027	-7.0529	0.	127.4
2925	4.4559	-7.3045	0.	127.27
2926	4.7082	-7.0717	0.	127.56
2927	3.9528	-7.2874	0.	127.07
2928	3.6979	-7.0315	0.	127.22
2929	4.9107	-3.9633	0.	127.16
2930	4.7968	-4.4327	0.	125.96
2931	5.1021	-4.2134	0.	126.83
2932	-6.0643	-6.2221	0.	123.1
2933	-5.832	-5.9666	0.	122.74
2934	-6.3148	-5.9711	0.	123.17
2935	-6.08	-5.7076	0.	121.64
2936	-4.0754	-6.736	0.	127.99
2937	-4.05	-7.2329	0.	127.2
2938	-4.3103	-6.9818	0.	127.08
2939	-3.8113	-6.9871	0.	127.86
2940	-5.2992	-6.9802	0.	124.86
2941	-5.0426	-7.2315	0.	125.39
2942	-4.8059	-6.9799	0.	125.92
2943	-5.7911	-6.9833	0.	124.22
2944	-5.5366	-7.234	0.	124.59
2945	1.727	1.0221	0.	126.5
2946	1.9791	1.2721	0.	127.63
2947	0.23848	1.0156	0.	123.31
2948	0.4888	1.2615	0.	122.42
2949	0.73602	1.014	0.	123.67
2950	-2.0357	2.2154	0.	126.37
2951	-1.7856	1.9695	0.	126.5
2952	-2.0165	3.7035	0.	126.81
2953	-2.0221	3.2141	0.	126.18
2954	-1.7638	3.4685	0.	125.85
2955	4.225	1.0602	0.	127.02
2956	3.979	1.297	0.	128.45
2957	3.0211	3.7388	0.	128.72
2958	3.0113	3.2455	0.	128.55
2959	2.7652	3.4895	0.	128.38
2960	3.2657	3.4958	0.	128.58
2961	3.0523	4.7292	0.	129.79
2962	3.3127	4.987	0.	130.22
2963	3.0773	5.2282	0.	129.26
2964	2.8159	4.9678	0.	129.69
2965	-4.5964	2.1991	0.	127.47
2966	-4.5941	2.675	0.	127.51
2967	-4.844	2.4395	0.	128.6
2968	-4.6354	1.2515	0.	126.38
2969	-4.9058	1.0266	0.	126.08
2970	-4.6722	0.77675	0.	126.46
2971	4.8098	-1.0641	0.	127.13
2972	5.0339	-1.2994	0.	127.56
2973	4.8975	-0.10418	0.	124.86
2974	5.1672	0.14206	0.	123.76
2975	-2.3522	-2.7107	0.	122.53
2976	-2.1386	-2.9824	0.	120.51
2977	-1.8891	-2.7517	0.	121.88
2978	-3.025	-2.3933	0.	125.98
2979	-3.2354	-2.1177	0.	127.32
2980	-2.7755	-2.1625	0.	125.43
2981	-0.48715	-2.8729	0.	126.49
2982	-0.26959	-3.1429	0.	127.64
2983	8.5269e-002	-5.4922	0.	125.5
2984	0.35204	-5.7071	0.	124.92
2985	0.38938	-5.2333	0.	123.87
2986	2.3527	7.191	0.	126.66
2987	2.132	7.4309	0.	127.28
2988	2.6273	7.4577	0.	126.61
2989	2.3982	7.7014	0.	126.9
2990	-2.625	6.679	0.	127.05
2991	-2.8943	6.8927	0.	126.96
2992	-2.8397	6.4314	0.	126.35
2993	2.2837	6.6893	0.	126.29
2994	1.9994	6.4251	0.	125.69
2995	2.2045	6.19	0.	126.22
2996	2.4838	6.4522	0.	126.23
2997	2.5643	6.9515	0.	126.35
2998	2.0756	6.9227	0.	126.75
2999	0.30218	-4.474	0.	125.2
3000	0.58357	-4.2445	0.	124.97
3001	0.4878	-4.7448	0.	123.98
3002	-0.95733	-2.8331	0.	124.99
3003	-0.74166	-3.1019	0.	126.81
3004	-1.2103	-3.0614	0.	124.13
3005	-1.4245	-2.7925	0.	123.
3006	-2.8139	-2.6682	0.	124.49
3007	-2.6005	-2.9417	0.	123.01
3008	-2.5644	-2.4374	0.	123.94
3009	-3.2764	-2.6239	0.	126.54
3010	-3.0634	-2.8983	0.	126.03
3011	4.8544	-0.58261	0.	126.11
3012	5.1222	-0.33417	0.	125.35
3013	5.0754	-0.81544	0.	126.89
3014	-4.6097	1.7248	0.	126.91
3015	-4.8723	1.4938	0.	126.45
3016	-4.3645	1.4819	0.	126.55
3017	-4.85	1.965	0.	128.02
3018	4.7378	1.0716	0.	125.27
3019	4.4888	1.3028	0.	127.1
3020	5.0054	1.3166	0.	124.71
3021	5.2578	1.0901	0.	123.41
3022	-1.7536	3.9601	0.	126.91
3023	-2.0098	4.1855	0.	128.06
3024	-2.0282	2.7174	0.	126.17
3025	-1.7706	2.9732	0.	125.84
3026	-1.7782	2.4721	0.	126.3
3027	-1.194e-002	1.264	0.	122.97
3028	-0.26238	1.0183	0.	123.96
3029	3.0349	4.234	0.	129.43
3030	2.7767	3.9814	0.	129.03
3031	3.2762	3.9914	0.	129.31
3032	3.2929	4.4889	0.	130.29
3033	2.7939	4.4739	0.	129.83
3034	1.483	1.2656	0.	125.98
3035	1.2317	1.0161	0.	124.97
3036	3.0033	2.7536	0.	129.02
3037	2.7489	2.506	0.	129.32
3038	3.2502	2.5094	0.	129.68
3039	2.9955	2.2629	0.	129.47
3040	3.2571	3.0019	0.	128.9
3041	2.7566	2.9982	0.	128.62
3042	-6.0456	-6.7313	0.	123.83
3043	-6.0295	-7.2377	0.	124.22
3044	-6.2821	-6.9875	0.	124.22
3045	-6.2979	-6.4805	0.	124.06
3046	4.5952	-5.3816	0.	126.4
3047	4.8751	-5.1562	0.	125.64
3048	4.3892	-5.1204	0.	125.92
3049	4.6863	-4.9028	0.	125.62
3050	4.7974	-5.6344	0.	127.49
3051	4.5304	-5.862	0.	127.45
3052	6.4635	-7.3359	0.	121.72
3053	6.454	-6.8623	0.	121.33
3054	6.2103	-7.0986	0.	123.1
3055	6.7099	-7.0938	0.	120.19
3056	3.1896	-6.4908	0.	128.43
3057	3.4527	-6.7723	0.	127.54
3058	1.2741	-5.4277	0.	121.39
3059	1.4495	-4.9173	0.	122.88
3060	1.5271	-5.1656	0.	122.7
3061	1.1137	-5.1031	0.	122.39
3062	-5.3454	-5.9691	0.	123.67
3063	-5.5981	-5.7114	0.	122.11
3064	-5.1082	-5.7211	0.	124.27
3065	-4.8534	-5.978	0.	125.42
3066	-6.5955	-4.7054	0.	122.25
3067	-6.3779	-4.3924	0.	117.87
3068	-6.587	-4.1832	0.	123.11
3069	-6.5739	-5.2094	0.	122.05
3070	-6.3428	-4.9338	0.	119.5
3071	-6.5096	5.236	0.	124.07
3072	-6.2508	5.4682	0.	124.51
3073	-6.7474	5.5022	0.	121.37
3074	-4.5978	3.6291	0.	126.75
3075	-4.8489	3.8771	0.	126.66
3076	-4.8547	3.394	0.	126.73
3077	-4.5971	3.1516	0.	127.09
3078	-0.12059	-5.7471	0.	128.13
3079	-7.4866e-002	-6.2071	0.	130.68
3080	0.14618	-5.9621	0.	127.56
3081	5.01	-3.4843	0.	128.15
3082	5.2982	-3.2593	0.	128.49
3083	5.2117	-3.7406	0.	128.44
3084	-5.2728	-6.051e-002	0.	126.36
3085	-5.5397	-0.25794	0.	125.32
3086	-5.0847	-0.36508	0.	126.9
3087	-5.3193	-0.45755	0.	125.45
3088	-5.2142	0.36078	0.	126.45
3089	-5.4802	0.15404	0.	126.69
3090	-4.9957	9.6462e-002	0.	127.08
3091	-4.1014	-6.2437	0.	128.31
3092	-3.8644	-6.0081	0.	129.4
3093	-4.1153	-5.7563	0.	127.99
3094	-4.3599	-5.9912	0.	127.34
3095	-3.8386	-6.4941	0.	129.01
3096	-0.99631	-6.1021	0.	132.02
3097	-0.788	-5.6099	0.	130.4
3098	-1.1276	-5.7566	0.	132.52
3099	-1.5014	5.1857	0.	131.5
3100	-1.45	4.7161	0.	130.31
3101	-1.1383	5.0066	0.	129.87
3102	-1.7277	4.928	0.	130.65
3103	6.947	-1.9358	0.	117.75
3104	6.684	-2.1573	0.	119.09
3105	6.5022	-1.8484	0.	121.02
3106	6.7357	-1.7357	0.	119.04
3107	7.4044	-1.9236	0.	116.7
3108	7.1495	-2.1664	0.	116.55
3109	7.188	-1.704	0.	115.89
3110	-2.7115	7.6082	0.	128.12
3111	-2.4474	7.3911	0.	128.62
3112	-2.4748	7.8582	0.	128.31
3113	-2.219	7.6397	0.	129.09
3114	-3.2071	7.5772	0.	127.19
3115	-2.9701	7.8306	0.	127.48
3116	-2.9388	7.3592	0.	127.46
3117	-3.7053	7.5419	0.	126.52
3118	-3.4677	7.8021	0.	126.77
3119	-4.205	7.5024	0.	126.03
3120	-3.967	7.7695	0.	126.23
3121	-3.933	7.2792	0.	126.22
3122	-4.7069	7.4738	0.	125.58
3123	-4.4668	7.7376	0.	125.79
3124	-5.2125	7.4654	0.	125.09
3125	-4.9688	7.7226	0.	125.35
3126	-5.72	7.4689	0.	124.51
3127	-5.4732	7.7211	0.	124.86
3128	-6.2268	7.4771	0.	123.87
3129	-5.9784	7.7261	0.	124.31
3130	-6.7321	7.4867	0.	123.31
3131	-6.4827	7.7337	0.	123.77
3132	-6.4778	7.2308	0.	123.34
3133	-7.2367	7.4951	0.	123.01
3134	-6.9864	7.7418	0.	123.38
3135	-3.4868	-2.3482	0.	127.88
3136	-3.697	-2.0737	0.	129.55
3137	-3.5292	-2.8533	0.	127.83
3138	-3.74	-2.5794	0.	127.93
3139	-1.3048	5.458	0.	131.98
3140	-1.6404	5.6292	0.	128.86
3141	5.9429	0.39976	0.	122.65
3142	6.0115	0.87352	0.	122.77
3143	6.231	0.6305	0.	125.78
3144	5.7229	0.63015	0.	122.45
3145	-7.4913	6.2656	0.	120.15
3146	-7.7443	6.0232	0.	119.89
3147	-7.4925	5.7816	0.	118.21
3148	-7.4893	6.7562	0.	121.5
3149	-7.7422	6.512	0.	121.27
3150	-7.4887	7.2507	0.	122.51
3151	-7.7407	7.0049	0.	122.31
3152	-7.7409	7.5008	0.	123.13
3153	-7.49	7.7479	0.	123.3
3154	6.7205	-7.5692	0.	121.29
3155	7.2257	-7.5581	0.	120.69
3156	6.977	-7.8056	0.	121.13
3157	6.9668	-7.3271	0.	119.77
3158	6.2172	-7.5739	0.	123.04
3159	6.473	-7.813	0.	122.27
3160	5.7149	-7.5721	0.	124.95
3161	5.9696	-7.814	0.	124.02
3162	5.964	-7.3366	0.	124.42
3163	5.2118	-7.5645	0.	126.29
3164	5.4672	-7.8097	0.	125.57
3165	5.4632	-7.3312	0.	126.36
3166	4.7082	-7.5527	0.	126.88
3167	4.9639	-7.801	0.	126.53
3168	4.9604	-7.3199	0.	127.18
3169	4.206	-7.5389	0.	126.95
3170	4.4623	-7.7896	0.	126.93
3171	3.7056	-7.526	0.	126.67
3172	3.9621	-7.7781	0.	126.94
3173	3.2101	-7.5201	0.	126.33
3174	3.4651	-7.77	0.	126.71
3175	3.4507	-7.2702	0.	126.82
3176	7.4727	-7.311	0.	120.09
3177	7.7221	-7.0572	0.	120.88
3178	7.4528	-6.8344	0.	118.26
3179	7.2138	-7.08	0.	119.16
3180	7.483	-7.7929	0.	121.26
3181	7.7327	-7.5415	0.	121.59
3182	-1.2632	-7.4606	0.	124.1
3183	-0.98628	-7.7127	0.	125.08
3184	-0.75388	-7.4384	0.	125.57
3185	-1.0298	-7.1886	0.	126.06
3186	-3.7887	-7.4841	0.	126.67
3187	-3.5301	-7.7349	0.	126.19
3188	-3.288	-7.4849	0.	125.97
3189	-3.5499	-7.2384	0.	127.34
3190	-4.2871	-7.4827	0.	126.49
3191	-4.0297	-7.7343	0.	126.43
3192	-4.7842	-7.4831	0.	125.84
3193	-4.528	-7.7344	0.	126.09
3194	-4.5474	-7.2316	0.	126.37
3195	-5.28	-7.4853	0.	125.12
3196	-5.0252	-7.736	0.	125.52
3197	-5.775	-7.4884	0.	124.59
3198	-5.5215	-7.7387	0.	125.
3199	-6.0173	-7.7419	0.	124.71
3200	-6.2697	-7.4918	0.	124.43
3201	-7.3273	-4.0359	0.	128.7
3202	-6.8315	-3.9656	0.	126.14
3203	-7.2512	-3.8022	0.	128.92
3204	-5.1755	0.81033	0.	126.09
3205	-4.9419	0.56051	0.	126.48
3206	-5.4357	0.59324	0.	126.67
3207	1.895	7.6785	0.	127.62
3208	1.8549	7.1627	0.	127.36
3209	1.6327	7.3984	0.	128.47
3210	3.1185	7.4802	0.	126.21
3211	2.8936	7.7235	0.	126.43
3212	2.8389	7.2181	0.	126.29
3213	3.6128	7.4964	0.	126.02
3214	3.3889	7.7404	0.	126.21
3215	4.1135	7.5082	0.	126.07
3216	3.8857	7.7523	0.	126.25
3217	4.6251	7.5198	0.	126.74
3218	4.3897	7.7615	0.	126.69
3219	-7.2899	-5.4895	0.	124.86
3220	-7.0435	-5.7351	0.	125.13
3221	-6.8074	-5.4742	0.	123.56
3222	-0.2852	7.7191	0.	118.59
3223	-0.76374	7.7098	0.	120.99
3224	-0.52099	7.9414	0.	119.8
3225	-0.52674	7.4929	0.	115.94
3226	-2.4055	6.9283	0.	128.04
3227	-2.1881	7.1768	0.	129.87
3228	-2.6747	7.1421	0.	127.96
3229	0.18855	7.7224	0.	121.55
3230	-4.0518e-002	7.9448	0.	120.21
3231	-5.4952e-002	7.4999	0.	116.92
3232	9.9261e-002	-4.1972	0.	126.64
3233	-9.9762e-002	-3.9187	0.	128.64
3234	0.38065	-3.9676	0.	126.41
3235	-0.11227	-5.2385	0.	125.61
3236	-0.42806	-5.4431	0.	127.26
3237	-1.9248	-3.2526	0.	119.62
3238	-1.4611	-3.2907	0.	122.15
3239	-1.7111	-3.5206	0.	118.44
3240	-1.6754	-3.0218	0.	121.02
3241	-0.31299	-3.6438	0.	129.18
3242	-0.5241	-3.3719	0.	127.95
3243	-3.3162	-3.1278	0.	127.32
3244	-3.5675	-3.3558	0.	129.78
3245	-3.7861	-3.0831	0.	128.38
3246	-2.3869	-3.2134	0.	120.98
3247	-2.1708	-3.4841	0.	117.13
3248	-5.4188	1.0435	0.	125.1
3249	-5.1427	1.2689	0.	126.16
3250	3.5532	4.7466	0.	130.71
3251	3.8165	5.0045	0.	131.41
3252	5.2821	1.565	0.	123.89
3253	5.8398	1.6024	0.	122.7
3254	5.5291	1.8133	0.	122.12
3255	5.5346	1.3385	0.	122.58
3256	-1.5281	2.2263	0.	126.42
3257	-1.2778	1.9832	0.	126.59
3258	1.8791	5.4247	0.	127.69
3259	2.0985	5.1865	0.	129.08
3260	2.1427	5.6852	0.	127.19
3261	5.17	-4.9346	0.	125.36
3262	5.4651	-4.71	0.	125.24
3263	4.9811	-4.6812	0.	125.35
3264	5.2864	-4.4618	0.	126.21
3265	5.7089	-6.6223	0.	127.58
3266	5.4672	-6.3815	0.	129.93
3267	5.4623	-6.8554	0.	127.8
3268	2.8077	-6.2305	0.	128.6
3269	2.4784	-6.0409	0.	128.33
3270	2.9499	-7.2625	0.	127.01
3271	2.7196	-7.5304	0.	125.47
3272	2.9743	-7.772	0.	126.45
3273	1.9668	-5.6246	0.	124.12
3274	2.2321	-5.8366	0.	126.92
3275	-5.7714	-0.89413	0.	120.04
3276	-5.5233	-1.0871	0.	121.13
3277	-5.7433	-1.3192	0.	116.06
3278	-5.9868	-1.1315	0.	117.51
3279	-7.5443	-4.759	0.	126.81
3280	-7.7838	-5.0025	0.	125.64
3281	-7.5357	-5.2483	0.	125.53
3282	-7.5523	-4.2834	0.	128.08
3283	-7.7894	-4.5125	0.	127.1
3284	-7.7855	-4.0299	0.	127.69
3285	-7.479	-3.8164	0.	128.81
3286	6.4087	-2.3411	0.	121.17
3287	6.2269	-2.0321	0.	123.09
3288	6.1369	-2.56	0.	123.87
3289	7.6622	-1.1825	0.	113.97
3290	7.9027	-0.90263	0.	116.73
3291	7.4326	-0.97668	0.	112.47
3292	7.6567	-0.69204	0.	112.25
3293	7.6478	-1.6699	0.	116.12
3294	7.8944	-1.4088	0.	117.54
3295	7.4314	-1.4504	0.	115.29
3296	7.8706	-1.9086	0.	118.45
3297	7.6172	-2.1523	0.	117.22
3298	-5.78	-0.47003	0.	123.19
3299	-6.0251	-0.69821	0.	120.73
3300	-5.5596	-0.66965	0.	123.28
3301	-6.3463	-1.6511	0.	115.7
3302	-6.0049	-1.7938	0.	110.64
3303	-5.9337	-1.5622	0.	113.09
3304	-6.1772	-1.3745	0.	114.67
3305	-1.5062	-7.7209	0.	123.53
3306	-1.7729	-7.4683	0.	122.6
3307	-1.5349	-7.2123	0.	122.88
3308	-1.3228	-6.2087	0.	129.44
3309	-0.82978	-6.3915	0.	131.62
3310	-1.3447	-6.4201	0.	126.32
3311	-1.0737	-6.6414	0.	128.95
3312	-2.5243	-7.7269	0.	123.58
3313	-2.5435	-7.2258	0.	123.16
3314	-2.2802	-7.4725	0.	122.7
3315	-2.7852	-7.4797	0.	124.33
3316	-3.3646	-6.0256	0.	131.15
3317	-3.6177	-5.7824	0.	129.97
3318	-3.6017	-6.2584	0.	130.1
3319	-7.9298	-1.2503	0.	125.62
3320	-7.5054	-0.96119	0.	121.59
3321	-7.6559	-1.3558	0.	125.74
3322	-7.8084	-0.91295	0.	124.15
3323	-5.7471	-4.3389e-002	0.	125.68
3324	-6.0105	-0.25929	0.	124.19
3325	-5.9631	0.1734	0.	126.21
3326	-5.7017	0.3865	0.	126.91
3327	6.8864	-2.3879	0.	117.89
3328	7.107	-2.6382	0.	116.12
3329	7.3623	-2.3951	0.	117.07
3330	6.6222	-2.6173	0.	119.14
3331	5.7936	-3.2924	0.	128.08
3332	5.5796	-3.0271	0.	127.87
3333	5.4999	-3.5156	0.	128.77
3334	-5.367	3.4045	0.	126.57
3335	-5.1058	3.6419	0.	126.64
3336	-5.106	3.1594	0.	127.5
3337	-6.2748	4.967	0.	126.12
3338	-6.0506	4.6899	0.	128.53
3339	-6.016	5.1991	0.	126.58
3340	-5.7847	4.9298	0.	127.56
3341	-6.5344	4.7363	0.	125.77
3342	-6.7595	5.0153	0.	121.95
3343	-5.3608	-5.4633	0.	122.7
3344	-5.6118	-5.2007	0.	120.34
3345	-5.8461	-5.4524	0.	120.99
3346	-5.118	-5.2202	0.	124.45
3347	-4.8669	-5.4794	0.	125.29
3348	-7.0973	-1.5933	0.	125.48
3349	-7.2442	-1.0671	0.	121.18
3350	-6.9456	-1.2894	0.	121.39
3351	-7.3947	-1.4617	0.	125.27
3352	-4.8229	-1.2492	0.	130.94
3353	-5.0558	-1.0348	0.	126.59
3354	-4.5801	-1.0014	0.	130.27
3355	-4.8405	-0.73491	0.	128.5
3356	-7.7348	5.0667	0.	114.89
3357	-7.4899	5.3086	0.	115.17
3358	-7.4749	4.8631	0.	111.53
3359	-7.244	5.0589	0.	116.1
3360	1.4766	-5.6739	0.	121.64
3361	1.7561	-5.8985	0.	123.03
3362	1.7296	-5.4118	0.	122.96
3363	1.2616	-5.9617	0.	119.21
3364	1.006	-5.8027	0.	121.1
3365	2.9274	-6.7311	0.	128.39
3366	2.6852	-7.024	0.	128.71
3367	3.1904	-7.0126	0.	127.5
3368	2.6461	-6.5052	0.	130.02
3369	6.2026	-6.6263	0.	123.86
3370	5.9559	-6.3914	0.	128.47
3371	5.9588	-6.8626	0.	125.62
3372	6.4453	-6.3909	0.	121.5
3373	6.6959	-6.6216	0.	118.78
3374	5.3501	-5.1821	0.	126.52
3375	5.0774	-5.409	0.	126.73
3376	-6.5344	-6.7367	0.	124.45
3377	-6.7732	-6.9919	0.	125.14
3378	-6.5223	-7.2416	0.	124.44
3379	-6.7851	-6.487	0.	125.51
3380	-6.5484	-6.2295	0.	124.13
3381	2.2478	2.5033	0.	129.61
3382	2.4947	2.2592	0.	129.34
3383	2.5023	2.7506	0.	128.92
3384	0.99118	1.7573	0.	122.94
3385	0.73942	1.5092	0.	122.52
3386	1.2379	1.5111	0.	124.79
3387	0.98664	1.2617	0.	123.78
3388	1.3926	5.4138	0.	127.28
3389	1.6515	5.671	0.	126.4
3390	1.6137	5.1772	0.	128.85
3391	1.1239	5.1721	0.	127.31
3392	1.1602	5.6505	0.	125.04
3393	0.91053	5.3982	0.	126.5
3394	2.2759	3.9742	0.	129.42
3395	2.5209	3.7321	0.	128.68
3396	2.5357	4.2214	0.	129.43
3397	-0.26498	1.509	0.	123.53
3398	-0.5168	1.754	0.	125.06
3399	-0.51542	1.2634	0.	124.51
3400	-0.77147	1.5021	0.	125.22
3401	-1.1669e-002	1.7573	0.	121.91
3402	0.23838	1.5098	0.	122.07
3403	-1.5206	2.728	0.	125.96
3404	-1.2638	2.9829	0.	125.67
3405	-1.5123	3.2276	0.	125.51
3406	-1.2713	2.4821	0.	126.64
3407	-1.4802	4.2225	0.	127.79
3408	-1.7365	4.4479	0.	128.94
3409	-1.2029	4.4855	0.	127.51
3410	-1.2378	3.9815	0.	125.76
3411	-1.5008	3.7251	0.	125.95
3412	7.9788	1.8403	0.	122.82
3413	8.2229	1.5666	0.	126.06
3414	7.6884	1.646	0.	115.8
3415	7.9653	1.3949	0.	119.13
3416	4.7564	1.5478	0.	126.54
3417	4.5001	1.7832	0.	129.15
3418	4.2429	1.5396	0.	128.52
3419	5.0114	1.7939	0.	125.75
3420	3.504	2.7576	0.	129.55
3421	3.7566	3.0054	0.	129.72
3422	3.5115	3.2521	0.	128.93
3423	3.7516	2.5115	0.	130.79
3424	3.4971	2.2668	0.	130.05
3425	3.5341	4.2462	0.	130.17
3426	3.793	4.5016	0.	131.81
3427	3.7747	4.0004	0.	130.34
3428	3.5208	3.7483	0.	129.17
3429	4.5935	5.2751	0.	130.85
3430	4.3583	5.5225	0.	129.7
3431	4.8664	5.5333	0.	129.73
3432	4.6402	5.7813	0.	128.08
3433	-5.1126	1.734	0.	127.57
3434	-5.3435	1.9717	0.	130.3
3435	-5.0976	2.2054	0.	129.15
3436	6.5172	-1.6464	0.	121.08
3437	6.2716	-1.4922	0.	124.55
3438	6.0149	-1.7672	0.	124.71
3439	6.7421	-1.3217	0.	119.74
3440	6.9766	-1.5038	0.	117.18
3441	5.5616	-0.79537	0.	127.74
3442	5.2995	-1.0507	0.	127.32
3443	5.3433	-0.567	0.	126.12
3444	-3.849	-4.0801	0.	132.58
3445	-4.3507	-4.0334	0.	131.79
3446	-4.0821	-3.8076	0.	131.33
3447	-4.0998	-4.3015	0.	131.01
3448	-2.6313	-3.445	0.	122.89
3449	-2.85	-3.1718	0.	124.55
3450	-1.2496	-3.558	0.	125.08
3451	-0.9946	-3.3302	0.	125.95
3452	6.2245e-003	-4.7089	0.	125.2
3453	-0.2835	-4.9295	0.	125.59
3454	0.19185	-4.9797	0.	123.99
3455	-0.17657	-4.4231	0.	127.4
3456	0.66027	7.7289	0.	125.96
3457	0.90619	7.9305	0.	127.17
3458	1.1478	7.823	0.	127.91
3459	0.89598	7.5226	0.	129.35
3460	0.43425	7.941	0.	124.13
3461	0.41644	7.5043	0.	124.94
3462	1.5012	6.3943	0.	125.63
3463	1.71	6.1666	0.	125.36
3464	1.7913	6.6585	0.	126.15
3465	-2.3462	6.4702	0.	126.58
3466	-2.1407	6.7187	0.	128.38
3467	-2.0694	6.2658	0.	126.52
3468	-2.2646	6.0182	0.	126.11
3469	-2.5609	6.2225	0.	125.88
3470	-1.2456	7.6928	0.	126.01
3471	-1.0057	7.93	0.	123.69
3472	-1.0005	7.4784	0.	124.17
3473	-1.4922	7.9113	0.	127.51
3474	-1.4777	7.4559	0.	130.36
3475	-1.7302	7.6692	0.	128.95
3476	-3.1327	-5.8132	0.	131.42
3477	-3.0803	-5.3781	0.	133.78
3478	-3.3858	-5.57	0.	130.25
3479	-2.9314	-5.5813	0.	131.67
3480	5.3012	6.8019	0.	125.13
3481	5.2135	6.3	0.	125.54
3482	5.5086	6.5613	0.	129.16
3483	4.9978	6.544	0.	124.18
3484	7.1273	5.2311	0.	114.2
3485	7.3919	5.4696	0.	119.39
3486	6.9325	5.543	0.	109.64
3487	7.1726	5.6705	0.	110.53
3488	-6.7775	-1.7787	0.	123.15
3489	-6.4743	-1.9417	0.	114.63
3490	-6.6259	-1.4749	0.	119.08
3491	-4.5278	-3.267	0.	129.69
3492	-4.4637	-2.7676	0.	129.44
3493	-4.7297	-2.9957	0.	134.01
3494	-4.2583	-3.0395	0.	128.37
3495	2.488	-7.7895	0.	126.43
3496	2.4549	-7.2919	0.	127.15
3497	2.2347	-7.5552	0.	127.9
3498	7.1578	-6.1383	0.	112.53
3499	7.3861	-5.8937	0.	110.19
3500	7.6324	-6.1119	0.	118.38
3501	7.4184	-6.3632	0.	115.15
3502	5.7754	-4.4902	0.	127.32
3503	5.6453	-4.9575	0.	126.34
3504	5.9399	-4.7355	0.	133.
3505	-7.0084	-7.7476	0.	125.55
3506	-7.0148	-7.2455	0.	125.31
3507	-7.2583	-7.4978	0.	126.75
3508	-6.764	-7.4952	0.	124.61
3509	-5.6506	1.2775	0.	126.23
3510	-5.956	1.04	0.	129.67
3511	-5.6789	0.82639	0.	125.66
3512	5.8811	-6.939e-002	0.	124.61
3513	6.1598	0.17405	0.	125.75
3514	5.6635	0.15806	0.	123.02
3515	-2.4152	-3.7157	0.	119.04
3516	-2.1967	-3.9865	0.	111.05
3517	-1.9572	-3.7522	0.	115.81
3518	-0.5993	-5.1341	0.	127.19
3519	-0.91401	-5.316	0.	135.56
3520	-8.0919	-1.6268	0.	127.18
3521	-8.3692	-1.412	0.	127.14
3522	-8.1928	-1.1488	0.	126.75
3523	-8.0808	-2.1548	0.	126.43
3524	-8.2992	-1.9152	0.	127.01
3525	-7.8181	-1.7323	0.	127.27
3526	-7.9036	-2.0708	0.	128.01
3527	-8.0477	-2.6895	0.	124.3
3528	-8.3328	-2.4421	0.	125.2
3529	-7.9408	-2.3434	0.	126.92
3530	-7.9763	-3.2274	0.	124.43
3531	-7.7949	-2.8073	0.	123.64
3532	-7.7391	-3.0187	0.	124.64
3533	-8.2407	-2.9631	0.	123.71
3534	-7.9955	-3.7565	0.	126.23
3535	-8.2339	-3.4963	0.	125.08
3536	-7.689	-3.543	0.	127.36
3537	-8.0226	-4.259	0.	126.71
3538	-8.2618	-4.0036	0.	126.2
3539	-8.0288	-4.756	0.	125.94
3540	-8.2729	-4.5044	0.	126.07
3541	-8.0247	-5.2518	0.	124.49
3542	-8.2723	-5.0024	0.	124.92
3543	-7.7767	-5.4976	0.	124.37
3544	-7.5295	-5.7449	0.	125.43
3545	-8.0186	-5.7493	0.	122.93
3546	-8.2672	-5.5002	0.	123.16
3547	4.9043	7.7725	0.	127.88
3548	5.1531	7.5334	0.	128.02
3549	4.8509	7.2793	0.	126.22
3550	8.0891	-2.1509	0.	120.4
3551	8.0504	-2.6228	0.	121.45
3552	8.3098	-2.4235	0.	122.62
3553	7.8357	-2.3946	0.	119.18
3554	8.1172	-1.6475	0.	119.88
3555	8.341	-1.9134	0.	122.03
3556	8.1349	-1.1289	0.	120.31
3557	8.3641	-1.389	0.	122.41
3558	8.3975	-0.83527	0.	124.82
3559	8.1186	-0.60529	0.	119.89
3560	-1.2293	-7.9729	0.	124.5
3561	-0.97087	-8.2282	0.	125.79
3562	-0.68229	-7.9666	0.	125.58
3563	-1.7506	-7.9758	0.	123.66
3564	-1.4915	-8.2288	0.	124.56
3565	-2.2615	-7.9778	0.	123.62
3566	-2.0035	-8.2294	0.	123.96
3567	-2.0174	-7.7233	0.	122.74
3568	-2.7672	-7.9805	0.	124.38
3569	-2.5103	-8.2314	0.	124.2
3570	-3.2701	-7.9833	0.	125.34
3571	-3.0139	-8.2338	0.	124.95
3572	-3.028	-7.7333	0.	125.13
3573	-3.7711	-7.9851	0.	125.94
3574	-3.5154	-8.236	0.	125.63
3575	-4.2706	-7.986	0.	126.03
3576	-4.0158	-8.2373	0.	125.95
3577	-4.769	-7.9874	0.	125.77
3578	-4.5151	-8.2384	0.	125.9
3579	-5.2667	-7.9895	0.	125.4
3580	-5.0137	-8.2401	0.	125.67
3581	-5.7638	-7.9922	0.	125.13
3582	-5.5114	-8.2424	0.	125.44
3583	-6.2607	-7.995	0.	125.14
3584	-6.0092	-8.2448	0.	125.4
3585	-6.7576	-7.9973	0.	125.81
3586	-6.5131	-7.7449	0.	124.86
3587	-6.5069	-8.247	0.	125.74
3588	-7.2546	-7.9989	0.	127.55
3589	-7.0045	-8.2486	0.	126.88
3590	7.2343	-8.0405	0.	121.69
3591	7.7394	-8.0288	0.	122.2
3592	7.4897	-8.279	0.	122.06
3593	6.7295	-8.0495	0.	122.1
3594	6.9849	-8.2889	0.	122.03
3595	6.2254	-8.0531	0.	123.24
3596	6.4811	-8.2945	0.	122.78
3597	5.7218	-8.0515	0.	124.64
3598	5.9777	-8.2953	0.	124.
3599	5.2193	-8.0461	0.	125.82
3600	5.475	-8.2919	0.	125.27
3601	4.718	-8.0378	0.	126.57
3602	4.9736	-8.2865	0.	126.27
3603	4.2184	-8.0287	0.	126.92
3604	4.4735	-8.2781	0.	126.93
3605	3.7216	-8.022	0.	126.98
3606	3.9754	-8.2715	0.	127.3
3607	3.2293	-8.0219	0.	126.84
3608	3.4802	-8.2692	0.	127.59
3609	2.7428	-8.031	0.	127.47
3610	2.9893	-8.2732	0.	128.01
3611	2.2665	-8.0493	0.	128.53
3612	2.5026	-8.2848	0.	129.99
3613	7.9639	-6.8033	0.	122.71
3614	7.9086	-6.3291	0.	123.3
3615	7.6946	-6.5805	0.	120.08
3616	8.225	-6.5316	0.	125.5
3617	7.9821	-7.2878	0.	122.38
3618	8.2347	-7.0287	0.	123.89
3619	7.9891	-7.7774	0.	122.53
3620	8.2395	-7.5238	0.	123.36
3621	7.9937	-8.2689	0.	122.83
3622	8.2436	-8.0175	0.	123.31
3623	-8.1947	-0.25968	0.	127.1
3624	-8.4449	-0.49402	0.	127.74
3625	-8.07	-0.59785	0.	125.25
3626	-8.2439	-0.71265	0.	126.62
3627	-6.3506	0.62198	0.	125.04
3628	-6.1871	0.81371	0.	131.
3629	-6.1714	0.38696	0.	126.31
3630	-5.91	0.60006	0.	127.
3631	-6.2556	-0.48747	0.	121.79
3632	-6.5088	-0.73119	0.	118.99
3633	-6.2405	-0.93557	0.	118.28
3634	7.7982	-2.8559	0.	119.71
3635	8.2622	-2.9243	0.	124.1
3636	8.0459	-3.0556	0.	123.67
3637	5.9056	-4.025	0.	129.03
3638	6.0969	-4.2775	0.	127.69
3639	5.5967	-4.2421	0.	128.32
3640	6.0743	-3.0623	0.	126.15
3641	6.3504	-2.8362	0.	121.86
3642	5.8602	-2.797	0.	125.93
3643	-0.3171	-6.9028	0.	131.77
3644	-0.52878	-7.1691	0.	128.11
3645	-0.56072	-6.6694	0.	131.28
3646	-0.80468	-6.9193	0.	128.6
3647	-6.7815	4.5279	0.	123.26
3648	-7.0391	4.3393	0.	117.53
3649	-7.2375	4.6111	0.	114.83
3650	-7.0066	4.807	0.	119.44
3651	-4.5826	-3.7637	0.	131.35
3652	-4.8119	-3.4948	0.	130.39
3653	-4.3141	-3.5379	0.	130.89
3654	5.3848	7.2958	0.	127.65
3655	5.6148	7.0622	0.	127.59
3656	5.0827	7.0418	0.	125.87
3657	-7.9952	6.2696	0.	121.02
3658	-7.9943	5.7827	0.	119.64
3659	-8.2467	6.0236	0.	121.79
3660	-7.9937	6.7607	0.	122.09
3661	-8.2461	6.514	0.	122.47
3662	-7.9929	7.255	0.	122.93
3663	-8.2446	7.0076	0.	123.13
3664	-7.9933	7.7515	0.	123.6
3665	-8.2447	7.5033	0.	123.69
3666	-7.7424	7.9986	0.	123.76
3667	-7.9946	8.2497	0.	124.1
3668	-8.2448	8.001	0.	124.14
3669	-7.2397	7.9945	0.	123.66
3670	-7.4924	8.247	0.	123.9
3671	-6.737	7.9888	0.	123.84
3672	-6.9901	8.2426	0.	123.94
3673	-6.2343	7.9827	0.	124.2
3674	-6.4882	8.2375	0.	124.19
3675	-5.7315	7.9783	0.	124.66
3676	-5.9861	8.233	0.	124.56
3677	-5.2295	7.9783	0.	125.12
3678	-5.4846	8.2311	0.	124.96
3679	-4.7286	7.9864	0.	125.56
3680	-4.9844	8.2344	0.	125.37
3681	-4.2288	8.0047	0.	126.
3682	-4.4848	8.2453	0.	125.76
3683	-3.7295	8.0297	0.	126.48
3684	-3.9856	8.2643	0.	126.17
3685	-3.2307	8.0555	0.	127.06
3686	-3.4865	8.2861	0.	126.64
3687	-2.7333	8.0806	0.	127.67
3688	-2.988	8.3079	0.	127.15
3689	-2.2376	8.1052	0.	127.99
3690	-2.4905	8.3299	0.	127.56
3691	-1.7437	8.1287	0.	127.33
3692	-1.9948	8.3505	0.	127.47
3693	-1.9818	7.8866	0.	128.78
3694	-1.2522	8.1485	0.	125.19
3695	-1.4998	8.371	0.	126.27
3696	-0.76294	8.1616	0.	122.48
3697	-1.0073	8.3858	0.	124.01
3698	-0.27631	8.1671	0.	121.36
3699	-0.51588	8.3932	0.	122.14
3700	0.20518	8.1633	0.	122.79
3701	-2.6576e-002	8.3929	0.	122.34
3702	0.68017	8.1426	0.	125.34
3703	0.45836	8.381	0.	124.3
3704	1.1575	8.0189	0.	127.34
3705	0.9405	8.3424	0.	126.32
3706	1.6536	7.9255	0.	127.82
3707	1.4259	8.1946	0.	127.5
3708	1.3913	7.6454	0.	128.67
3709	2.1612	7.9489	0.	127.24
3710	1.9271	8.2013	0.	127.29
3711	2.6645	7.9672	0.	126.72
3712	2.4298	8.2142	0.	126.86
3713	3.1639	7.9836	0.	126.43
3714	2.931	8.2291	0.	126.54
3715	3.6618	7.9962	0.	126.44
3716	3.4293	8.2417	0.	126.44
3717	4.1619	8.0055	0.	126.88
3718	3.9272	8.251	0.	126.67
3719	4.6689	8.0142	0.	127.84
3720	4.4293	8.258	0.	127.33
3721	5.1848	8.0239	0.	129.44
3722	4.9374	8.2657	0.	128.37
3723	6.9929	8.2033	0.	115.79
3724	6.7382	7.9959	0.	114.84
3725	7.2203	7.7449	0.	119.73
3726	7.2397	7.985	0.	119.38
3727	8.151	7.6361	0.	130.7
3728	7.9652	8.1373	0.	129.02
3729	8.2105	7.8996	0.	130.29
3730	7.6956	7.7	0.	128.01
3731	7.715	7.9401	0.	127.6
3732	8.0906	7.2801	0.	136.26
3733	7.9666	6.8733	0.	131.66
3734	7.6353	7.344	0.	133.58
3735	-7.9874	5.2994	0.	117.77
3736	-8.2437	5.5372	0.	121.3
3737	-7.7425	5.5412	0.	117.94
3738	0.84175	-6.6392	0.	123.92
3739	1.0688	-6.2983	0.	118.56
3740	0.81312	-6.1393	0.	120.54
3741	2.0213	-6.1105	0.	125.84
3742	2.3168	-6.3156	0.	129.74
3743	6.6796	-6.1518	0.	116.97
3744	6.9098	-5.9128	0.	109.46
3745	6.9301	-6.3825	0.	114.27
3746	5.4907	-5.9071	0.	130.81
3747	5.7141	-6.1506	0.	130.77
3748	5.2309	-6.1356	0.	130.08
3749	-7.0342	-6.2384	0.	126.06
3750	-6.7975	-5.981	0.	124.69
3751	-7.2831	-5.9905	0.	125.7
3752	2.0181	3.7278	0.	128.94
3753	2.0076	3.2392	0.	128.58
3754	1.7586	3.4862	0.	129.43
3755	2.2631	3.4857	0.	128.2
3756	0.85687	4.933	0.	125.3
3757	0.58448	4.6987	0.	118.5
3758	0.37275	4.9349	0.	122.03
3759	0.64346	5.1591	0.	124.52
3760	2.0603	4.6988	0.	130.56
3761	1.8331	4.9391	0.	130.23
3762	2.3234	4.9501	0.	129.85
3763	-1.021	2.239	0.	126.8
3764	-0.77015	1.9954	0.	126.11
3765	-1.0248	1.7435	0.	126.27
3766	8.0093	3.2723	0.	122.38
3767	8.2578	3.5136	0.	123.37
3768	7.757	3.5137	0.	122.91
3769	8.012	3.7616	0.	123.4
3770	7.7442	2.0924	0.	120.16
3771	8.2445	2.0517	0.	125.78
3772	8.0042	2.3101	0.	123.33
3773	6.8474	5.0272	0.	112.08
3774	6.3512	5.0508	0.	112.43
3775	6.6526	5.3391	0.	107.55
3776	6.5748	4.7869	0.	110.03
3777	8.0458	4.7509	0.	128.79
3778	7.8184	4.9956	0.	127.23
3779	8.3007	5.0002	0.	130.64
3780	8.0728	5.25	0.	132.17
3781	3.9999	2.2665	0.	131.22
3782	4.25	2.0231	0.	130.63
3783	3.9928	1.7795	0.	130.03
3784	3.7455	2.0218	0.	130.48
3785	4.0183	3.7543	0.	129.98
3786	4.2602	3.5043	0.	130.7
3787	4.0095	3.2554	0.	129.6
3788	3.7644	3.5021	0.	128.82
3789	4.3221	5.0165	0.	132.09
3790	4.0562	4.7595	0.	132.49
3791	4.0869	5.2639	0.	130.95
3792	-5.8246	2.4445	0.	135.25
3793	-5.5869	2.2113	0.	132.65
3794	-5.3409	2.4451	0.	131.53
3795	-5.5969	2.6874	0.	131.38
3796	6.9673	-1.0625	0.	116.44
3797	7.2035	-0.78269	0.	110.05
3798	7.2018	-1.2446	0.	113.87
3799	5.7871	-1.0286	0.	128.01
3800	6.0148	-1.2499	0.	126.79
3801	5.525	-1.284	0.	127.59
3802	5.7581	-1.5249	0.	126.97
3803	6.0889	1.3712	0.	122.91
3804	6.3086	1.0934	0.	123.22
3805	5.7837	1.1073	0.	122.79
3806	-3.5883	-4.8386	0.	128.8
3807	-3.2963	-5.1206	0.	131.37
3808	-3.6018	-5.3125	0.	127.8
3809	-3.8458	-5.0544	0.	127.3
3810	-0.3756	-4.1446	0.	129.38
3811	-0.57314	-3.8705	0.	130.66
3812	-1.7071	7.2121	0.	131.72
3813	-1.9233	6.9672	0.	130.19
3814	-1.9596	7.4255	0.	130.35
3815	-1.2326	7.2414	0.	128.49
3816	-0.99012	7.0304	0.	128.2
3817	-0.76351	7.2615	0.	119.12
3818	-1.4516	7.0047	0.	135.62
3819	-1.8639	6.5143	0.	128.31
3820	-1.6679	6.7598	0.	134.14
3821	-1.597	6.3138	0.	123.51
3822	-1.7691	6.0688	0.	126.77
3823	0.99766	6.3735	0.	122.29
3824	1.2104	6.1354	0.	124.4
3825	1.2895	6.6281	0.	127.15
3826	0.87045	7.0783	0.	132.87
3827	0.65215	7.298	0.	128.3
3828	1.1396	7.345	0.	130.09
3829	-0.4663	-4.6437	0.	127.78
3830	-0.74656	-4.8545	0.	123.55
3831	-0.64292	-4.3669	0.	133.46
3832	-1.0393	-3.8264	0.	128.57
3833	-0.84046	-4.0927	0.	134.7
3834	-0.78425	-3.5986	0.	129.46
3835	-1.2964	-4.0539	0.	129.29
3836	-1.4996	-3.7879	0.	121.4
3837	-2.6504	-3.95	0.	125.45
3838	-2.8771	-3.6748	0.	126.65
3839	-3.5974	-4.352	0.	132.28
3840	-3.3604	-4.1305	0.	136.16
3841	-3.5929	-3.8556	0.	132.2
3842	-3.344	-4.6276	0.	128.72
3843	-3.8481	-4.5733	0.	130.71
3844	6.4066	1.5704	0.	126.31
3845	6.2774	1.8417	0.	122.22
3846	6.0546	1.8574	0.	121.54
3847	5.8279	-0.54376	0.	127.45
3848	6.0953	-0.28684	0.	126.77
3849	5.6096	-0.31539	0.	125.85
3850	6.0454	-0.75926	0.	130.06
3851	6.4965	-1.1676	0.	123.2
3852	6.2731	-0.98054	0.	128.87
3853	6.7437	-0.88184	0.	121.63
3854	-5.8626	1.5113	0.	125.01
3855	-5.3744	1.5029	0.	127.31
3856	-5.6054	1.7405	0.	130.04
3857	4.8278	5.0247	0.	130.59
3858	5.0625	4.7717	0.	128.38
3859	5.335	5.0316	0.	126.25
3860	5.1007	5.2829	0.	129.46
3861	4.5597	4.7676	0.	133.92
3862	4.0336	4.2559	0.	131.97
3863	4.2939	4.5106	0.	134.32
3864	4.2709	4.0059	0.	132.52
3865	4.2523	2.513	0.	132.93
3866	4.0041	2.7593	0.	130.94
3867	4.7551	2.0294	0.	128.36
3868	4.5024	2.2696	0.	132.36
3869	5.0048	2.2755	0.	127.22
3870	5.2583	2.0422	0.	123.99
3871	7.7861	4.5005	0.	126.82
3872	8.0243	4.2545	0.	126.19
3873	8.2789	4.5025	0.	128.15
3874	7.0673	4.7531	0.	116.48
3875	7.3348	4.9965	0.	119.54
3876	7.2741	2.2713	0.	118.7
3877	7.4538	1.8981	0.	113.24
3878	7.5167	2.3377	0.	120.28
3879	8.2587	3.0234	0.	123.79
3880	7.7598	3.0259	0.	122.8
3881	8.0125	2.7881	0.	123.1
3882	-0.73178	3.988	0.	124.83
3883	-0.99124	3.7379	0.	124.44
3884	-0.96047	4.2445	0.	125.47
3885	-0.76518	2.4918	0.	127.72
3886	-1.0145	2.737	0.	126.34
3887	-9.0864e-003	2.2525	0.	121.45
3888	-0.26349	2.0023	0.	123.45
3889	0.24049	2.0048	0.	120.01
3890	2.0345	4.214	0.	130.43
3891	1.7721	3.9743	0.	130.77
3892	1.7958	4.456	0.	132.2
3893	2.2944	4.4612	0.	130.44
3894	1.0756	4.6987	0.	127.36
3895	1.3451	4.9355	0.	128.88
3896	0.99453	2.2539	0.	122.88
3897	1.2426	2.0062	0.	125.08
3898	0.74231	2.0054	0.	120.6
3899	2.0006	2.7483	0.	129.51
3900	1.747	2.5017	0.	130.6
3901	1.9943	2.2561	0.	129.61
3902	1.7525	2.9953	0.	129.78
3903	2.2551	2.9957	0.	128.83
3904	-7.0239	-6.7422	0.	126.2
3905	-7.2647	-6.9956	0.	127.24
3906	-7.2743	-6.4928	0.	127.92
3907	-8.2627	-5.9992	0.	120.84
3908	-8.0139	-6.2487	0.	122.41
3909	-7.7714	-5.9965	0.	123.99
3910	5.5468	-5.4314	0.	129.02
3911	5.8046	-5.2029	0.	125.8
3912	5.741	-5.6778	0.	135.46
3913	5.274	-5.6583	0.	129.25
3914	6.1986	-6.156	0.	126.11
3915	5.9644	-5.9213	0.	135.42
3916	6.4369	-5.9225	0.	123.36
3917	8.2705	-5.7997	0.	136.75
3918	8.4901	-6.0017	0.	131.62
3919	8.0798	-6.0616	0.	127.42
3920	8.3961	-6.264	0.	129.64
3921	2.1858	-7.064	0.	132.23
3922	2.4039	-6.798	0.	130.32
3923	1.8224	-6.3807	0.	128.45
3924	1.5412	-6.1863	0.	120.61
3925	-8.2342	5.0538	0.	121.5
3926	-7.9561	4.8115	0.	111.94
3927	-4.6558	-2.4964	0.	130.38
3928	-4.2023	-2.5372	0.	129.59
3929	-4.4107	-2.2658	0.	132.54
3930	-4.8384	-1.742	0.	138.71
3931	-4.5922	-1.5042	0.	133.49
3932	-5.0614	-1.5123	0.	128.14
3933	-6.9241	-2.081	0.	131.37
3934	-7.201	-1.9388	0.	129.17
3935	-7.5565	-2.8743	0.	124.98
3936	-7.4274	-2.578	0.	130.01
3937	-7.6879	-2.4611	0.	126.23
3938	-7.302	-3.026	0.	125.42
3939	-7.4518	-3.3342	0.	127.52
3940	7.634	5.7211	0.	128.74
3941	7.5994	5.235	0.	124.75
3942	7.8537	5.4894	0.	129.68
3943	5.4173	6.0531	0.	126.91
3944	5.1466	5.7925	0.	128.62
3945	4.9203	6.0405	0.	127.
3946	6.1213	5.3086	0.	115.72
3947	6.0732	4.786	0.	114.9
3948	5.8444	5.0419	0.	119.28
3949	5.4335	7.7848	0.	129.56
3950	5.7064	8.0352	0.	131.
3951	5.4522	8.2735	0.	129.66
3952	5.7099	7.5525	0.	129.65
3953	-4.6109	-4.2575	0.	131.38
3954	-4.8724	-4.4867	0.	130.33
3955	-4.6171	-4.7503	0.	129.61
3956	-4.36	-4.5256	0.	130.59
3957	-4.8695	-3.9916	0.	132.59
3958	-5.62	-4.6985	0.	118.27
3959	-5.3691	-4.9576	0.	122.09
3960	-5.8613	-4.9294	0.	118.34
3961	-6.3101	4.4592	0.	128.15
3962	-6.0943	4.1766	0.	129.46
3963	-5.8231	4.42	0.	128.92
3964	-6.5818	4.2202	0.	128.14
3965	-6.0564	2.2116	0.	139.53
3966	-6.0875	2.6789	0.	134.27
3967	-6.2875	2.4186	0.	132.75
3968	-5.8643	3.9102	0.	127.79
3969	-5.617	3.656	0.	126.38
3970	-5.3558	3.8934	0.	126.46
3971	-5.5931	4.1537	0.	127.19
3972	0.14957	-6.863	0.	132.73
3973	0.61115	-6.874	0.	130.2
3974	0.4143	-7.0459	0.	132.69
3975	-4.4418e-002	-7.1162	0.	131.18
3976	-8.1407e-002	-6.66	0.	132.66
3977	-0.2561	-7.3825	0.	127.55
3978	-0.44988	-7.6923	0.	126.06
3979	6.0057	-3.5505	0.	128.14
3980	6.3026	-3.3293	0.	124.63
3981	6.2368	-3.8139	0.	128.04
3982	5.7121	-3.7737	0.	128.83
3983	8.1487	-3.4821	0.	126.54
3984	8.3078	-3.9068	0.	128.96
3985	7.9458	-3.7492	0.	126.45
3986	8.4357	-3.6047	0.	128.29
3987	6.8427	-2.8677	0.	117.37
3988	6.5788	-3.1033	0.	120.35
3989	7.3282	-2.8709	0.	116.47
3990	7.5835	-2.6278	0.	117.43
3991	7.577	-3.0994	0.	117.9
3992	7.0829	-3.1262	0.	113.2
3993	-6.2264	-4.2501e-002	0.	124.76
3994	-6.4914	-0.25787	0.	121.11
3995	-8.3782	-1.673e-002	0.	128.57
3996	-8.2998	0.2335	0.	128.65
3997	-7.9003	-0.17654	0.	122.94
3998	-7.937	8.389e-002	0.	126.12
3999	-7.4725	-0.56295	0.	118.48
4000	-7.245	-0.5079	0.	115.92
4001	-7.0237	-0.77159	0.	118.49
4002	-3.099	-6.2655	0.	131.09
4003	-2.8602	-6.0137	0.	132.09
4004	-2.8291	-6.486	0.	127.45
4005	-3.3361	-6.4983	0.	130.03
4006	-3.0707	-6.7433	0.	128.64
4007	-2.5638	-6.7255	0.	123.77
4008	-2.3023	-6.97	0.	121.7
4009	-2.8054	-6.9828	0.	124.95
4010	-5.8838	-4.39	0.	114.6
4011	-6.3543	-4.1188	0.	118.09
4012	-6.1251	-4.6209	0.	115.06
4013	8.6439	7.4476	0.	129.65
4014	8.4297	7.1737	0.	129.89
4015	8.4081	7.6894	0.	130.6
4016	8.5071	3.2647	0.	124.76
4017	8.7561	3.509	0.	125.84
4018	8.51	3.759	0.	125.42
4019	8.5063	2.7722	0.	125.59
4020	8.7555	3.0138	0.	126.11
4021	8.4886	1.778	0.	129.02
4022	8.746	2.0215	0.	129.46
4023	8.5005	2.2785	0.	127.36
4024	8.737	1.517	0.	131.24
4025	8.4732	1.2466	0.	134.15
4026	7.744	-8.519	0.	122.69
4027	7.9968	-8.7621	0.	123.12
4028	8.2466	-8.5119	0.	123.45
4029	7.2403	-8.5274	0.	122.39
4030	7.4943	-8.7685	0.	122.62
4031	6.7366	-8.5339	0.	122.7
4032	6.991	-8.7753	0.	122.64
4033	6.2335	-8.5367	0.	123.53
4034	6.4879	-8.7794	0.	123.2
4035	5.9856	-8.7801	0.	124.15
4036	5.7309	-8.5357	0.	124.63
4037	-1.2331	-8.4841	0.	125.85
4038	-0.98392	-8.7408	0.	127.05
4039	-0.72379	-8.4966	0.	127.9
4040	-1.7444	-8.4824	0.	124.85
4041	-1.4917	-8.7361	0.	125.73
4042	-1.9986	-8.7352	0.	125.
4043	-2.2524	-8.483	0.	124.53
4044	-3.7602	-8.4882	0.	125.64
4045	-3.507	-8.7393	0.	125.49
4046	-3.2593	-8.4865	0.	125.24
4047	-4.2603	-8.4897	0.	125.82
4048	-4.0075	-8.7408	0.	125.75
4049	-4.5073	-8.7421	0.	125.85
4050	-4.7598	-8.4911	0.	125.8
4051	-5.7568	-8.495	0.	125.72
4052	-5.5054	-8.7451	0.	125.85
4053	-5.2584	-8.4929	0.	125.71
4054	-6.0044	-8.7468	0.	125.99
4055	-6.2555	-8.4968	0.	126.
4056	8.6267	-1.0953	0.	126.91
4057	8.8678	-0.66206	0.	131.3
4058	8.8777	-0.89252	0.	129.62
4059	8.5973	-0.51278	0.	132.82
4060	8.5879	-1.6549	0.	124.56
4061	8.8324	-1.4204	0.	126.85
4062	8.5616	-2.1859	0.	124.25
4063	8.8117	-1.9404	0.	125.76
4064	8.7878	-2.459	0.	125.9
4065	8.5216	-2.7251	0.	125.28
4066	8.6385	-5.2813	0.	128.54
4067	8.837	-5.0244	0.	125.92
4068	8.4059	-5.0751	0.	124.91
4069	8.5649	-4.8066	0.	126.71
4070	8.8783	-5.5116	0.	128.86
4071	8.4562	-5.545	0.	136.27
4072	8.6758	-5.747	0.	131.09
4073	8.7464	-7.0103	0.	126.09
4074	8.4922	-7.2648	0.	124.86
4075	8.4958	-6.757	0.	126.68
4076	8.7466	-8.009	0.	124.57
4077	8.4964	-8.2605	0.	123.93
4078	8.4941	-7.7638	0.	124.14
4079	-7.9964	8.7491	0.	124.46
4080	-7.7446	8.498	0.	124.24
4081	-8.2461	8.4998	0.	124.47
4082	-4.7406	8.4933	0.	125.57
4083	-4.9931	8.7416	0.	125.43
4084	-5.2396	8.4871	0.	125.21
4085	-4.2416	8.5049	0.	125.93
4086	-4.4941	8.7487	0.	125.75
4087	-3.7426	8.5207	0.	126.32
4088	-3.9951	8.7601	0.	126.07
4089	-3.2437	8.5385	0.	126.72
4090	-3.4962	8.774	0.	126.4
4091	-2.9973	8.7889	0.	126.7
4092	-2.7452	8.5572	0.	127.04
4093	-1.7508	8.5928	0.	126.41
4094	-2.0011	8.8187	0.	126.59
4095	-2.2477	8.5752	0.	127.04
4096	-1.5029	8.8343	0.	125.75
4097	-1.2549	8.6082	0.	125.08
4098	0.22661	8.6105	0.	123.85
4099	-1.378e-002	8.846	0.	123.72
4100	-0.26614	8.619	0.	123.11
4101	0.71869	8.5808	0.	125.28
4102	0.48093	8.832	0.	124.73
4103	1.2089	8.5182	0.	126.47
4104	0.97578	8.7958	0.	125.92
4105	1.4668	8.7374	0.	126.66
4106	1.6994	8.4704	0.	126.97
4107	4.4564	8.7553	0.	127.22
4108	4.6978	8.5095	0.	127.87
4109	4.1947	8.5035	0.	127.13
4110	6.7317	8.4903	0.	118.56
4111	6.477	8.2829	0.	118.2
4112	6.4835	8.7538	0.	120.56
4113	6.2251	8.5157	0.	122.77
4114	6.9847	8.7278	0.	119.41
4115	7.2331	8.4715	0.	120.69
4116	8.2251	8.4391	0.	127.98
4117	7.9811	8.6981	0.	126.56
4118	7.7302	8.4505	0.	125.64
4119	8.4779	8.7079	0.	127.39
4120	8.7258	8.4613	0.	127.89
4121	8.4704	8.2013	0.	129.26
4122	-8.7573	-6.	0.	121.07
4123	-8.5081	-6.25	0.	116.21
4124	-8.5114	-5.7502	0.	121.1
4125	-8.512	-4.2491	0.	125.55
4126	-8.7624	-4.4997	0.	125.39
4127	-8.5164	-4.7508	0.	125.06
4128	-8.5002	-3.7435	0.	125.05
4129	-8.7561	-3.9967	0.	125.3
4130	-8.4984	-3.232	0.	124.34
4131	-8.7464	-3.4907	0.	124.6
4132	-8.756	-2.9813	0.	124.35
4133	-8.5259	-2.7157	0.	124.59
4134	-8.797	-1.9631	0.	126.52
4135	-8.5765	-1.7004	0.	126.96
4136	-8.5513	-2.2025	0.	125.77
4137	-8.5309	0.23712	0.	129.64
4138	-8.8319	1.2506e-004	0.	129.77
4139	-8.6283	-0.25106	0.	129.21
4140	-8.4889	0.77996	0.	128.3
4141	-8.7288	0.49986	0.	129.59
4142	-8.193	0.54949	0.	126.46
4143	-8.6119	1.3244	0.	127.71
4144	-8.7761	1.0431	0.	127.49
4145	-8.368	1.2348	0.	123.87
4146	-8.2989	1.0495	0.	131.61
4147	-8.8891	1.5387	0.	129.
4148	-8.8318	1.7939	0.	132.36
4149	-8.5173	1.6788	0.	133.35
4150	-8.4839	4.8127	0.	131.91
4151	-8.7389	4.5633	0.	134.46
4152	-8.2059	4.5704	0.	122.29
4153	-8.4975	4.3443	0.	134.33
4154	-8.4905	5.2916	0.	125.02
4155	-8.7405	5.0424	0.	128.33
4156	-8.4961	5.778	0.	123.45
4157	-8.746	5.529	0.	125.56
4158	-8.4975	6.268	0.	123.24
4159	-8.7483	6.0192	0.	124.55
4160	-8.7483	6.5121	0.	124.33
4161	-8.497	6.7609	0.	123.51
4162	-8.4962	7.7528	0.	124.23
4163	-8.7474	7.5037	0.	124.56
4164	-8.4964	7.256	0.	123.88
4165	-8.747	8.0018	0.	124.71
4166	-8.4963	8.2511	0.	124.51
4167	-2.3244	-6.4561	0.	120.26
4168	-2.5903	-6.2342	0.	128.53
4169	-7.4259	-0.27767	0.	115.53
4170	-7.6902	-7.2296e-002	0.	121.48
4171	-7.7755	-0.51471	0.	121.1
4172	-6.9659	-0.23789	0.	115.69
4173	6.819	-3.3619	0.	116.15
4174	7.3317	-3.3547	0.	114.56
4175	4.0308e-002	-7.5541	0.	127.16
4176	0.22032	-7.299	0.	131.16
4177	0.30219	-8.1876	0.	134.66
4178	8.3644e-002	-7.9644	0.	129.3
4179	4.4288e-002	-8.3743	0.	132.78
4180	-0.16235	-8.0629	0.	129.63
4181	-6.1383	3.6636	0.	125.91
4182	-5.891	3.4093	0.	124.58
4183	-6.1355	3.1621	0.	127.11
4184	-6.3659	3.9376	0.	129.39
4185	-5.3749	-4.4609	0.	123.36
4186	-5.1309	-4.2208	0.	131.48
4187	-5.1241	-4.72	0.	127.16
4188	6.2208	8.0487	0.	124.27
4189	5.9828	7.8029	0.	130.96
4190	5.9689	8.2815	0.	128.81
4191	-9.0069	-5.2499	0.	124.32
4192	-9.0057	-5.75	0.	123.24
4193	-9.2546	-5.4999	0.	125.11
4194	-8.7598	-5.5002	0.	123.24
4195	-9.008	-4.7492	0.	125.01
4196	-9.2556	-4.9997	0.	125.32
4197	-8.762	-5.0004	0.	124.67
4198	-9.0065	-4.2473	0.	125.14
4199	-9.256	-4.4988	0.	125.25
4200	-9.0023	-3.7439	0.	124.86
4201	-9.2536	-3.9967	0.	124.91
4202	-9.004	-3.24	0.	124.61
4203	-9.2507	-3.4943	0.	124.55
4204	-9.2565	-2.9919	0.	124.6
4205	-9.0171	-2.735	0.	124.94
4206	-9.0494	-1.728	0.	127.13
4207	-9.2795	-1.9849	0.	126.62
4208	-9.0326	-2.2299	0.	125.93
4209	-9.0732	-1.2308	0.	128.21
4210	-9.2948	-1.4848	0.	127.9
4211	-8.829	-1.4654	0.	127.57
4212	-9.0862	-0.73502	0.	129.15
4213	-9.313	-0.98739	0.	129.03
4214	-8.8671	-0.97634	0.	128.35
4215	-9.0702	-0.23659	0.	129.78
4216	-9.3119	-0.48843	0.	129.85
4217	-8.8665	-0.48778	0.	129.23
4218	-9.0298	0.26286	0.	129.72
4219	-9.29	1.1563e-002	0.	130.13
4220	-9.016	0.76303	0.	128.76
4221	-9.2577	0.51016	0.	129.63
4222	-9.0533	1.2574	0.	128.72
4223	-9.2715	1.0095	0.	128.72
4224	-9.0224	1.7564	0.	132.77
4225	-9.3011	1.505	0.	129.72
4226	-8.9886	2.2862	0.	136.07
4227	-8.719	2.1027	0.	140.68
4228	-9.2305	2.0132	0.	133.76
4229	-9.0181	2.818	0.	133.33
4230	-8.7771	2.6046	0.	138.21
4231	-9.2569	2.5421	0.	133.67
4232	-9.022	3.325	0.	129.57
4233	-8.7853	3.1061	0.	131.97
4234	-9.2667	3.0533	0.	129.93
4235	-9.0144	3.8204	0.	129.42
4236	-8.7768	3.6028	0.	131.04
4237	-9.2644	3.5543	0.	128.36
4238	-9.0027	4.3082	0.	130.93
4239	-8.7612	4.0892	0.	131.
4240	-9.2569	4.0482	0.	129.5
4241	-8.9955	4.793	0.	131.
4242	-9.2483	4.5376	0.	130.76
4243	-8.996	5.2798	0.	128.91
4244	-9.2467	5.0268	0.	130.18
4245	-8.9981	5.7702	0.	126.67
4246	-9.2483	5.5184	0.	128.28
4247	-8.9991	6.2633	0.	125.64
4248	-9.2494	6.0123	0.	127.02
4249	-8.999	6.7583	0.	125.23
4250	-9.2495	6.508	0.	126.27
4251	-8.9986	7.2549	0.	125.09
4252	-9.2493	7.0049	0.	125.81
4253	-8.7477	7.0071	0.	124.41
4254	-8.9982	7.7526	0.	125.04
4255	-9.2489	7.5028	0.	125.52
4256	-8.9981	8.2512	0.	125.02
4257	-9.2487	8.0014	0.	125.32
4258	-8.9984	8.7505	0.	125.
4259	-9.2487	8.5006	0.	125.18
4260	-8.7474	8.5006	0.	124.82
4261	-8.2475	8.9995	0.	124.69
4262	-8.7483	9.0001	0.	124.88
4263	-8.4984	9.2499	0.	124.81
4264	-8.4973	8.7502	0.	124.7
4265	-7.9979	9.2492	0.	124.68
4266	-7.7467	8.9982	0.	124.57
4267	-6.7454	8.9943	0.	124.65
4268	-6.9968	9.2465	0.	124.69
4269	-7.2459	8.9964	0.	124.56
4270	-6.9939	8.7443	0.	124.39
4271	-6.2449	8.9925	0.	124.83
4272	-6.4964	9.245	0.	124.82
4273	-6.4929	8.7413	0.	124.56
4274	-5.7451	8.9918	0.	125.07
4275	-5.9963	9.2439	0.	125.03
4276	-5.9921	8.739	0.	124.81
4277	-5.2457	8.9931	0.	125.33
4278	-5.4968	9.2441	0.	125.27
4279	-5.4921	8.7386	0.	125.12
4280	-4.7466	8.997	0.	125.61
4281	-4.9975	9.246	0.	125.53
4282	-4.2477	9.0039	0.	125.88
4283	-4.4983	9.25	0.	125.79
4284	-3.7487	9.0134	0.	126.15
4285	-3.9993	9.2562	0.	126.03
4286	-3.2498	9.0244	0.	126.38
4287	-3.5001	9.2639	0.	126.23
4288	-3.001	9.2724	0.	126.36
4289	-2.7508	9.0362	0.	126.49
4290	-1.7532	9.0602	0.	125.92
4291	-2.0027	9.29	0.	126.06
4292	-2.2521	9.0479	0.	126.38
4293	-1.2543	9.0704	0.	125.18
4294	-1.503	9.2998	0.	125.52
4295	-0.75608	9.0756	0.	124.46
4296	-1.004	9.3054	0.	124.87
4297	-1.0063	8.8443	0.	124.51
4298	-0.25772	9.0756	0.	124.21
4299	-0.50502	9.3076	0.	124.45
4300	-0.51008	8.8486	0.	123.61
4301	0.24054	9.0675	0.	124.6
4302	-5.5592e-003	9.3048	0.	124.53
4303	0.73802	9.047	0.	125.37
4304	0.49342	9.2948	0.	125.07
4305	1.2337	9.015	0.	126.1
4306	0.99145	9.2744	0.	125.75
4307	1.7283	8.9891	0.	126.51
4308	1.4874	9.2489	0.	126.29
4309	2.2246	8.9816	0.	126.63
4310	1.9832	9.2371	0.	126.57
4311	1.9609	8.7221	0.	126.83
4312	2.7229	8.985	0.	126.61
4313	2.4812	9.2368	0.	126.66
4314	2.4593	8.726	0.	126.71
4315	3.2219	8.9917	0.	126.59
4316	2.98	9.2412	0.	126.67
4317	2.9598	8.735	0.	126.57
4318	3.7204	8.998	0.	126.66
4319	3.479	9.2464	0.	126.68
4320	3.4585	8.7439	0.	126.56
4321	4.2185	9.0024	0.	126.86
4322	3.9776	9.2505	0.	126.7
4323	3.9567	8.7506	0.	126.77
4324	4.7188	9.0059	0.	127.08
4325	4.4761	9.2531	0.	126.73
4326	5.2226	9.0087	0.	126.92
4327	4.978	9.2555	0.	126.61
4328	4.9602	8.7601	0.	127.74
4329	5.7276	9.0086	0.	125.62
4330	5.4818	9.257	0.	125.93
4331	5.4672	8.7638	0.	127.78
4332	6.2335	9.0026	0.	123.06
4333	5.9862	9.255	0.	124.23
4334	5.9752	8.7645	0.	125.26
4335	6.7365	8.9913	0.	121.3
4336	6.4895	9.2477	0.	122.13
4337	7.2356	8.9769	0.	122.14
4338	6.9899	9.2378	0.	121.73
4339	7.7349	8.9682	0.	124.37
4340	7.4889	9.227	0.	123.16
4341	7.484	8.7206	0.	123.44
4342	8.2338	8.9669	0.	125.96
4343	7.988	9.225	0.	124.81
4344	8.7342	8.9726	0.	126.3
4345	8.4867	9.2249	0.	125.6
4346	8.9714	8.2206	0.	127.82
4347	8.9822	8.726	0.	126.81
4348	9.2333	8.4802	0.	126.73
4349	8.9517	7.7188	0.	128.23
4350	9.2228	7.9775	0.	127.16
4351	8.7159	7.9605	0.	129.18
4352	8.9662	7.2245	0.	127.19
4353	9.2085	7.4796	0.	126.94
4354	9.0141	6.7328	0.	126.21
4355	9.2445	6.9872	0.	125.67
4356	8.752	6.9506	0.	127.45
4357	9.0376	6.2416	0.	127.44
4358	9.2742	6.4915	0.	125.86
4359	8.8053	6.4783	0.	126.69
4360	9.0373	5.7484	0.	129.53
4361	9.2794	5.9978	0.	127.7
4362	8.8031	5.9999	0.	130.
4363	9.0304	5.2497	0.	130.38
4364	9.2755	5.4994	0.	129.41
4365	8.7962	5.5003	0.	131.97
4366	9.0208	4.7513	0.	129.67
4367	9.2702	4.9992	0.	129.72
4368	8.7846	5.0002	0.	130.81
4369	9.0115	4.2537	0.	128.38
4370	9.2614	4.5018	0.	129.14
4371	8.7701	4.5029	0.	128.86
4372	9.0065	3.7556	0.	127.35
4373	9.2565	4.003	0.	128.35
4374	8.7604	4.0057	0.	126.93
4375	9.2538	3.5047	0.	127.98
4376	9.0045	3.2581	0.	127.18
4377	8.9944	1.7606	0.	131.68
4378	9.2477	2.0085	0.	130.69
4379	8.9994	2.2621	0.	129.61
4380	8.9998	1.2584	0.	132.68
4381	9.2453	1.5074	0.	131.9
4382	9.0428	0.76463	0.	130.97
4383	8.736	0.98792	0.	135.46
4384	9.2578	1.0074	0.	131.2
4385	9.0356	0.26308	0.	131.48
4386	8.8924	0.49185	0.	128.64
4387	9.3006	0.51348	0.	128.67
4388	9.0376	-0.25801	0.	133.82
4389	8.8501	0.23344	0.	130.5
4390	9.2525	3.921e-003	0.	131.51
4391	8.7671	-0.10873	0.	135.05
4392	9.0919	-0.75115	0.	132.22
4393	9.3079	-0.5081	0.	132.62
4394	9.0835	-1.2176	0.	129.57
4395	9.3235	-0.98658	0.	131.07
4396	9.0563	-1.7059	0.	128.06
4397	9.2994	-1.4698	0.	129.79
4398	9.038	-2.2134	0.	127.41
4399	9.2856	-1.9709	0.	128.88
4400	9.0243	-2.72	0.	127.62
4401	9.2718	-2.4765	0.	128.49
4402	9.0357	-3.2132	0.	128.08
4403	9.2664	-2.9776	0.	128.44
4404	8.7581	-2.9862	0.	126.99
4405	8.9856	-3.704	0.	128.27
4406	9.2805	-3.4697	0.	128.17
4407	8.8443	-3.4819	0.	128.48
4408	8.9602	-4.2246	0.	127.25
4409	9.1995	-3.969	0.	127.5
4410	8.6507	-4.033	0.	129.16
4411	8.7786	-3.7309	0.	128.48
4412	9.0306	-4.7505	0.	125.58
4413	9.2492	-4.4924	0.	125.71
4414	8.7585	-4.5327	0.	126.46
4415	9.0769	-5.2547	0.	126.21
4416	9.2932	-5.0001	0.	124.82
4417	9.0886	-5.7553	0.	128.18
4418	9.3165	-5.5024	0.	126.54
4419	9.0538	-6.2562	0.	128.63
4420	9.3099	-6.0052	0.	127.96
4421	8.8861	-5.9907	0.	130.45
4422	9.0123	-6.7565	0.	127.57
4423	9.2694	-6.5058	0.	127.91
4424	8.7617	-6.5032	0.	128.15
4425	8.9992	-7.2566	0.	126.26
4426	9.2521	-7.0054	0.	127.
4427	8.9976	-7.7562	0.	125.45
4428	9.2485	-7.505	0.	126.21
4429	8.745	-7.5111	0.	125.03
4430	8.9984	-8.2549	0.	125.03
4431	9.2485	-8.0041	0.	125.67
4432	8.9993	-8.7534	0.	124.81
4433	9.2492	-8.503	0.	125.31
4434	8.7482	-8.5065	0.	124.39
4435	8.2486	-9.0071	0.	123.61
4436	8.7494	-9.0039	0.	124.35
4437	8.4995	-9.2538	0.	123.98
4438	8.4983	-8.757	0.	123.93
4439	7.7471	-9.0115	0.	123.05
4440	7.9987	-9.2567	0.	123.35
4441	7.2449	-9.0164	0.	122.86
4442	7.4973	-9.2603	0.	122.98
4443	6.7424	-9.0207	0.	123.13
4444	6.9955	-9.2639	0.	123.02
4445	6.2401	-9.0228	0.	123.81
4446	6.4935	-9.2667	0.	123.5
4447	5.7386	-9.0219	0.	124.76
4448	5.992	-9.2673	0.	124.32
4449	5.2377	-9.0196	0.	125.82
4450	5.4912	-9.2654	0.	125.34
4451	5.4839	-8.7774	0.	125.25
4452	4.7382	-9.0164	0.	126.84
4453	4.9909	-9.2638	0.	126.42
4454	4.9832	-8.7745	0.	126.29
4455	4.24	-9.0128	0.	127.8
4456	4.492	-9.2607	0.	127.47
4457	4.4841	-8.7687	0.	127.18
4458	3.7429	-9.0115	0.	128.75
4459	3.9938	-9.2588	0.	128.47
4460	3.9865	-8.7651	0.	127.94
4461	3.2465	-9.0138	0.	129.75
4462	3.4964	-9.2589	0.	129.42
4463	3.4904	-8.7651	0.	128.73
4464	2.7505	-9.0183	0.	130.96
4465	2.9991	-9.2621	0.	130.16
4466	2.9963	-8.7691	0.	129.78
4467	2.253	-9.0223	0.	129.54
4468	2.5018	-9.2653	0.	130.3
4469	2.5034	-8.7761	0.	131.71
4470	2.0091	-8.7837	0.	134.21
4471	2.0019	-9.2674	0.	126.3
4472	1.7509	-9.0206	0.	122.81
4473	0.7485	-9.0311	0.	120.21
4474	0.9816	-8.7378	0.	115.66
4475	0.99857	-9.2601	0.	117.51
4476	1.2475	-9.0138	0.	116.79
4477	0.25161	-9.0502	0.	126.9
4478	0.50086	-9.2867	0.	123.82
4479	0.4924	-8.8343	0.	126.98
4480	1.7958e-003	-9.2848	0.	127.97
4481	8.3108e-003	-8.8169	0.	130.84
4482	-0.24479	-9.0309	0.	129.06
4483	-1.2426	-8.9928	0.	126.93
4484	-0.99456	-9.2478	0.	127.69
4485	-0.74179	-9.0046	0.	128.3
4486	-1.7459	-8.9889	0.	125.88
4487	-1.496	-9.2425	0.	126.59
4488	-2.2494	-8.9884	0.	125.33
4489	-1.9984	-9.2411	0.	125.79
4490	-2.7519	-8.9893	0.	125.22
4491	-2.5004	-9.2415	0.	125.41
4492	-2.5032	-8.7362	0.	124.86
4493	-3.2534	-8.9905	0.	125.37
4494	-3.0018	-9.2423	0.	125.37
4495	-3.0058	-8.7377	0.	125.12
4496	-3.7542	-8.992	0.	125.6
4497	-3.5027	-9.2434	0.	125.53
4498	-4.2544	-8.9933	0.	125.78
4499	-4.003	-9.2445	0.	125.72
4500	-4.7541	-8.9945	0.	125.89
4501	-4.503	-9.2454	0.	125.87
4502	-5.2536	-8.9957	0.	125.98
4503	-5.0027	-9.2463	0.	126.
4504	-5.0067	-8.7435	0.	125.84
4505	-5.753	-8.997	0.	126.13
4506	-5.5023	-9.2473	0.	126.13
4507	-6.0018	-9.2482	0.	126.3
4508	-6.2524	-8.9981	0.	126.37
4509	-7.251	-8.9998	0.	126.16
4510	-7.0008	-9.2497	0.	126.28
4511	-7.0021	-8.7493	0.	127.09
4512	-6.7517	-8.9991	0.	126.66
4513	-7.7506	-9.	0.	123.29
4514	-7.5012	-8.7499	0.	127.43
4515	-7.5005	-9.25	0.	124.77
4516	-8.2503	-9.	0.	119.61
4517	-8.0006	-8.75	0.	121.6
4518	-8.0003	-9.25	0.	121.24
4519	-8.7502	-9.	0.	119.91
4520	-8.5003	-8.75	0.	115.21
4521	-8.5002	-9.25	0.	119.27
4522	-7.0465	-2.4047	0.	134.75
4523	-7.173	-2.7297	0.	129.96
4524	-7.3234	-2.2626	0.	133.41
4525	-5.0935	-1.981	0.	132.37
4526	-4.8648	-2.2305	0.	137.03
4527	-4.6197	-1.9998	0.	139.54
4528	-8.2366	2.2622	0.	127.89
4529	-8.5076	2.4211	0.	142.37
4530	-8.4046	1.9876	0.	141.57
4531	1.8998	-6.8519	0.	133.97
4532	1.6089	-6.6655	0.	119.2
4533	2.1179	-6.5859	0.	132.26
4534	2.0235	-8.3021	0.	134.44
4535	1.7619	-8.5404	0.	124.82
4536	2.2595	-8.5375	0.	136.27
4537	8.0386	-5.6006	0.	134.04
4538	8.2236	-5.3388	0.	132.32
4539	6.2028	-5.6878	0.	132.27
4540	5.9988	-5.4493	0.	131.96
4541	-7.7512	-8.4999	0.	125.7
4542	-7.5023	-8.2497	0.	128.98
4543	-7.2523	-8.4994	0.	128.34
4544	-7.7656	-6.497	0.	125.96
4545	-7.5151	-6.7462	0.	128.92
4546	-7.5231	-6.2448	0.	127.57
4547	-9.0044	-6.2502	0.	123.
4548	-9.2538	-6.0001	0.	125.08
4549	1.4989	2.7487	0.	130.83
4550	1.2464	2.5019	0.	127.26
4551	1.4944	2.2543	0.	129.48
4552	1.5333	4.2164	0.	132.51
4553	1.299	4.4595	0.	130.31
4554	1.5685	4.6963	0.	131.86
4555	-0.2599	2.4984	0.	125.02
4556	-0.50911	2.7448	0.	127.82
4557	-0.5143	2.2483	0.	127.04
4558	-0.39166	4.6944	0.	116.61
4559	-0.18503	4.4695	0.	119.89
4560	-0.45757	4.2293	0.	123.95
4561	-0.68627	4.4859	0.	124.59
4562	7.5263	4.2519	0.	125.33
4563	7.2912	4.5019	0.	122.11
4564	7.5587	4.7453	0.	125.25
4565	4.5029	2.7605	0.	133.45
4566	4.7521	2.5157	0.	131.16
4567	4.5311	4.2606	0.	134.79
4568	4.7944	4.5146	0.	131.7
4569	6.5203	-0.6948	0.	127.12
4570	6.3128	-0.50235	0.	129.23
4571	6.973	2.178	0.	121.96
4572	6.7877	1.7187	0.	126.43
4573	7.1527	1.8048	0.	116.22
4574	6.6585	1.99	0.	122.57
4575	-1.0976	-4.3203	0.	135.08
4576	-0.92318	-4.5777	0.	129.04
4577	0.79641	6.6066	0.	126.6
4578	0.60638	6.8432	0.	133.78
4579	1.0883	6.8612	0.	131.6
4580	-1.2091	6.7937	0.	134.87
4581	-1.4009	6.5593	0.	129.15
4582	-0.59653	4.9845	0.	118.92
4583	-0.10879	4.9276	0.	115.4
4584	-8.999	9.2501	0.	124.96
4585	-9.249	9.0002	0.	125.07
4586	8.9891	9.2341	0.	125.63
4587	9.239	8.9848	0.	125.92
4588	9.2498	-9.0019	0.	125.08
4589	8.9998	-9.252	0.	124.71
4590	-9.0001	-8.75	0.	122.24
4591	-9.0001	-9.25	0.	121.96
4592	-9.2501	-9.	0.	124.32
4593	5.8222	6.8216	0.	131.6
4594	5.7124	6.3144	0.	130.3
4595	5.9399	7.3188	0.	129.53
4596	8.1019	6.3185	0.	131.84
4597	8.338	6.5414	0.	124.53
4598	8.3057	6.7669	0.	125.39
4599	6.4227	5.5969	0.	110.68
4600	5.8849	5.5575	0.	125.03
4601	6.9421	5.7529	0.	106.38
4602	7.4147	5.922	0.	119.79
4603	7.8753	5.9942	0.	136.71
4604	-6.6209	-2.2439	0.	122.84
4605	-6.133	-2.0844	0.	109.48
4606	-5.6056	-1.9871	0.	114.28
4607	-5.3164	-1.7513	0.	122.19
4608	-5.8034	-1.7657	0.	111.21
4609	-4.9218	-2.7245	0.	134.75
4610	-5.0138	-3.2235	0.	134.72
4611	-5.0987	-3.7228	0.	131.61
4612	-6.9894	-3.1958	0.	130.72
4613	-6.7194	-3.6674	0.	130.35
4614	-7.1392	-3.504	0.	133.07
4615	-7.7138	4.4234	0.	108.46
4616	-7.6962	4.6078	0.	108.19
4617	-7.2813	4.1945	0.	112.46
4618	-7.4796	4.4663	0.	109.94
4619	-6.8394	4.0316	0.	122.35
4620	-7.7664	2.409	0.	107.28
4621	-7.9585	2.1392	0.	117.26
4622	-7.4911	2.2675	0.	100.2
4623	-7.3004	2.5725	0.	105.99
4624	-8.5236	3.8716	0.	132.45
4625	-8.5402	3.3838	0.	133.45
4626	-8.5444	2.8927	0.	136.69
4627	1.9656	-7.3273	0.	132.87
4628	2.0132	-7.8151	0.	129.72
4629	1.2378	-8.5013	0.	111.3
4630	1.5037	-8.7773	0.	113.57
4631	0.74812	-8.3385	0.	126.28
4632	0.50701	-8.4142	0.	133.06
4633	0.7255	-8.541	0.	122.44
4634	1.1007	-6.8119	0.	116.29
4635	1.3277	-6.471	0.	111.43
4636	7.6016	-5.6444	0.	116.89
4637	7.8478	-5.8625	0.	125.24
4638	7.1381	-5.6683	0.	106.91
4639	6.6672	-5.6835	0.	115.65
4640	-8.2506	-8.5	0.	117.12
4641	-8.7502	-8.5	0.	117.45
4642	-9.2501	-8.5	0.	126.68
4643	-8.2592	-6.4994	0.	117.67
4644	-8.7552	-6.5001	0.	118.03
4645	-9.2527	-6.5002	0.	127.15
4646	1.5036	3.2423	0.	130.61
4647	1.5127	3.7328	0.	131.25
4648	0.74533	2.5024	0.	117.49
4649	0.24352	2.5015	0.	116.62
4650	0.4931	2.2539	0.	115.31
4651	0.80317	4.4644	0.	120.38
4652	0.30956	4.4665	0.	115.11
4653	9.7837e-002	4.7027	0.	119.02
4654	-0.48997	3.7391	0.	125.5
4655	-0.50211	3.2423	0.	126.78
4656	-0.74943	3.489	0.	125.13
4657	7.5074	3.2673	0.	123.28
4658	7.524	2.7932	0.	123.03
4659	7.5093	3.7579	0.	124.21
4660	7.7644	4.0059	0.	124.74
4661	4.5055	3.2558	0.	132.58
4662	4.2547	3.0068	0.	131.51
4663	4.5127	3.7559	0.	133.21
4664	-7.5044	-7.7491	0.	128.74
4665	-7.5081	-7.2479	0.	128.67
4666	6.7792	2.4697	0.	118.21
4667	7.2961	2.4967	0.	121.6
4668	6.2504	2.5214	0.	117.32
4669	6.4647	2.2817	0.	118.98
4670	5.7474	2.5296	0.	118.46
4671	5.9874	2.3098	0.	119.37
4672	5.2504	2.5214	0.	123.25
4673	5.5039	2.2881	0.	120.06
4674	6.7946	4.5127	0.	114.39
4675	6.2968	4.5221	0.	112.52
4676	5.7963	4.5211	0.	116.48
4677	5.295	4.5172	0.	122.91
4678	5.5675	4.777	0.	120.92
4679	6.4281	-4.0664	0.	126.72
4680	6.5337	-3.5928	0.	124.57
4681	6.2614	-4.5229	0.	133.36
4682	6.0992	-4.9809	0.	132.37
4683	8.1246	-4.8808	0.	132.11
4684	7.9551	-4.4385	0.	133.27
4685	8.2837	-4.6124	0.	133.96
4686	8.1204	-4.1673	0.	127.62
4687	7.7584	-4.0096	0.	125.15
4688	-6.3984	0.83935	0.	129.17
4689	-6.6284	0.43612	0.	123.95
4690	-6.168	1.2738	0.	128.42
4691	-6.0759	1.7491	0.	131.87
4692	-7.8301	0.39988	0.	123.87
4693	-8.003	0.81907	0.	129.74
4694	-8.1417	1.2118	0.	128.6
4695	-8.2735	1.5892	0.	129.17
4696	-7.6832	1.9977	0.	110.25
4697	-8.1264	1.8646	0.	129.99
4698	-6.7149	2.065	0.	119.37
4699	-6.2706	1.9874	0.	136.63
4700	-6.5016	2.1945	0.	130.01
4701	-7.1945	2.0921	0.	101.6
4702	-7.0038	2.3972	0.	107.48
4703	-6.726	2.2662	0.	117.94
4704	6.9799	-0.60206	0.	115.18
4705	7.4277	-0.49805	0.	109.77
4706	7.8726	-0.3947	0.	115.31
4707	8.3184	-0.2828	0.	127.83
4708	6.374	-4.3405e-002	0.	127.77
4709	6.4478	0.40479	0.	128.88
4710	6.5281	0.85042	0.	126.27
4711	6.6263	1.2926	0.	126.59
4712	-2.8605	-5.3663	0.	134.36
4713	-3.052	-4.9097	0.	131.
4714	8.5857	0.71514	0.	132.98
4715	8.2156	1.0749	0.	127.25
4716	-2.4319	-4.2208	0.	117.42
4717	-2.8878	-4.1797	0.	133.31
4718	-1.5435	-4.2857	0.	121.38
4719	-1.9863	-4.254	0.	108.2
4720	-1.7468	-4.0197	0.	113.45
4721	-1.0613	-5.0363	0.	131.75
4722	-1.4541	-5.8632	0.	129.93
4723	-1.5721	-6.2686	0.	124.98
4724	-1.2536	-5.4627	0.	137.56
4725	-0.31344	6.8285	0.	105.99
4726	-7.6298e-002	7.0559	0.	110.48
4727	0.13883	6.8372	0.	119.66
4728	-0.76025	6.8151	0.	119.18
4729	-0.53363	7.0462	0.	110.14
4730	-0.94167	5.2789	0.	130.31
4731	-0.89114	4.7759	0.	127.13
4732	-1.2932	6.1295	0.	130.36
4733	-1.1298	5.7133	0.	136.8
4734	-8.7491	9.5	0.	124.89
4735	-9.2495	9.5	0.	124.98
4736	-8.2488	9.4996	0.	124.8
4737	-7.7484	9.499	0.	124.75
4738	-7.2481	9.4981	0.	124.77
4739	-7.4972	9.248	0.	124.64
4740	-6.7479	9.4972	0.	124.86
4741	-6.2477	9.4964	0.	125.02
4742	-5.7479	9.4962	0.	125.23
4743	-5.2485	9.497	0.	125.47
4744	-4.7492	9.4989	0.	125.71
4745	-4.2499	9.5022	0.	125.93
4746	-3.7506	9.5067	0.	126.11
4747	-3.2513	9.512	0.	126.21
4748	-2.7519	9.5175	0.	126.19
4749	-2.2524	9.5233	0.	126.01
4750	-2.5018	9.2812	0.	126.33
4751	-1.7526	9.5297	0.	125.66
4752	-1.2528	9.5348	0.	125.22
4753	-0.75296	9.5373	0.	124.86
4754	-0.25286	9.5367	0.	124.76
4755	0.24732	9.5321	0.	124.99
4756	0.74685	9.5221	0.	125.45
4757	1.2451	9.5083	0.	125.95
4758	1.7422	9.4969	0.	126.35
4759	2.7383	9.493	0.	126.73
4760	2.2398	9.4923	0.	126.61
4761	3.2371	9.4959	0.	126.77
4762	3.7361	9.4989	0.	126.72
4763	4.2352	9.5012	0.	126.57
4764	4.7353	9.5027	0.	126.25
4765	5.2372	9.5038	0.	125.62
4766	5.7403	9.5034	0.	124.55
4767	6.2421	9.5002	0.	123.3
4768	6.7428	9.4941	0.	122.53
4769	7.2431	9.4879	0.	122.74
4770	7.742	9.4837	0.	123.61
4771	8.2409	9.4829	0.	124.46
4772	8.7416	9.4863	0.	124.93
4773	9.2442	9.4918	0.	125.1
4774	9.4941	9.2425	0.	125.39
4775	9.4901	8.739	0.	125.84
4776	9.4847	8.2372	0.	126.07
4777	9.4797	7.7384	0.	125.87
4778	9.4868	7.2423	0.	125.41
4779	9.5046	6.7459	0.	125.3
4780	9.5159	6.2477	0.	126.12
4781	9.5176	5.7488	0.	127.58
4782	9.5153	5.2489	0.	128.75
4783	9.5108	4.7498	0.	129.19
4784	9.5065	4.2511	0.	129.11
4785	9.5039	3.752	0.	128.98
4786	9.5021	3.2531	0.	129.17
4787	9.501	2.7539	0.	129.75
4788	9.2528	3.0065	0.	128.37
4789	9.4996	2.2546	0.	130.48
4790	9.2513	2.5082	0.	129.41
4791	9.4986	1.7554	0.	130.91
4792	9.5033	1.2564	0.	130.39
4793	9.5157	0.75627	0.	128.87
4794	9.5175	0.25432	0.	128.56
4795	9.5228	-0.24617	0.	130.26
4796	9.5395	-0.74354	0.	131.47
4797	9.5394	-1.2387	0.	131.28
4798	9.5287	-1.7347	0.	130.61
4799	9.5195	-2.234	0.	129.96
4800	9.514	-2.7341	0.	129.32
4801	9.5113	-3.2341	0.	128.54
4802	9.4944	-3.7347	0.	127.41
4803	9.4886	-4.2368	0.	125.96
4804	9.5119	-4.742	0.	124.92
4805	9.5329	-5.2478	0.	125.14
4806	9.5378	-5.7523	0.	126.32
4807	9.5254	-6.2548	0.	127.23
4808	9.5092	-6.7548	0.	127.34
4809	9.5013	-7.2538	0.	126.95
4810	9.4994	-7.7528	0.	126.44
4811	9.4994	-8.2521	0.	125.96
4812	9.4997	-8.7515	0.	125.59
4813	9.5	-9.2508	0.	125.33
4814	9.25	-9.5009	0.	124.95
4815	8.7499	-9.5019	0.	124.34
4816	8.2496	-9.5034	0.	123.72
4817	7.7489	-9.5055	0.	123.28
4818	7.2479	-9.5078	0.	123.14
4819	6.7467	-9.5099	0.	123.39
4820	6.2455	-9.5111	0.	124.01
4821	5.7447	-9.5108	0.	124.89
4822	5.2444	-9.5096	0.	125.94
4823	4.7447	-9.5081	0.	127.05
4824	4.2458	-9.5066	0.	128.14
4825	3.7473	-9.5062	0.	129.14
4826	3.249	-9.5072	0.	129.83
4827	2.7504	-9.5091	0.	129.5
4828	2.2507	-9.5104	0.	127.02
4829	1.7503	-9.5098	0.	122.56
4830	1.2503	-9.5094	0.	119.65
4831	1.4992	-9.263	0.	119.04
4832	0.75094	-9.5157	0.	121.12
4833	0.25104	-9.5213	0.	124.87
4834	-0.24902	-9.515	0.	127.49
4835	-0.74837	-9.5043	0.	127.99
4836	-0.4956	-9.2611	0.	128.6
4837	-1.248	-9.4975	0.	127.35
4838	-1.7485	-9.4947	0.	126.5
4839	-2.2495	-9.4942	0.	125.87
4840	-2.7504	-9.4946	0.	125.56
4841	-3.251	-9.4952	0.	125.53
4842	-3.7514	-9.496	0.	125.64
4843	-4.2516	-9.4967	0.	125.81
4844	-4.7515	-9.4973	0.	125.98
4845	-5.2513	-9.4979	0.	126.15
4846	-5.7511	-9.4986	0.	126.3
4847	-6.2508	-9.4992	0.	126.37
4848	-6.7506	-9.4996	0.	126.06
4849	-6.5014	-9.249	0.	126.44
4850	-7.2504	-9.4999	0.	124.88
4851	-7.7502	-9.5	0.	122.73
4852	-8.2501	-9.5	0.	120.89
4853	-8.7501	-9.5	0.	121.31
4854	-9.25	-9.5	0.	124.1
4855	-9.5	-9.25	0.	126.45
4856	-9.5	-8.75	0.	128.79
4857	-9.5	-8.25	0.	130.77
4858	-9.5	-7.75	0.	131.31
4859	-9.5002	-7.2501	0.	131.47
4860	-9.501	-6.7502	0.	131.13
4861	-9.502	-6.2501	0.	129.26
4862	-9.5026	-5.75	0.	126.95
4863	-9.5032	-5.2498	0.	126.11
4864	-9.5036	-4.7493	0.	125.56
4865	-9.5031	-4.2482	0.	125.02
4866	-9.5019	-3.7471	0.	124.61
4867	-9.5032	-3.2462	0.	124.53
4868	-9.5087	-2.7447	0.	125.02
4869	-9.5161	-2.2428	0.	126.05
4870	-9.2693	-2.4878	0.	125.37
4871	-9.5248	-1.7417	0.	127.4
4872	-9.5346	-1.2414	0.	128.72
4873	-9.5387	-0.7408	0.	129.72
4874	-9.5318	-0.24028	0.	130.19
4875	-9.5179	0.25886	0.	130.03
4876	-9.5131	0.75661	0.	129.58
4877	-9.5192	1.2571	0.	129.71
4878	-9.5092	1.7618	0.	130.72
4879	-9.4988	2.269	0.	131.29
4880	-9.5055	2.7774	0.	130.26
4881	-9.5091	3.2825	0.	128.69
4882	-9.5069	3.7821	0.	128.41
4883	-9.5025	4.2776	0.	129.33
4884	-9.4994	4.7714	0.	129.93
4885	-9.4989	5.2653	0.	129.56
4886	-9.4995	5.7605	0.	128.64
4887	-9.4998	6.257	0.	127.65
4888	-9.4998	6.7545	0.	126.85
4889	-9.4995	7.2528	0.	126.24
4890	-9.4993	7.7516	0.	125.79
4891	-9.4993	8.2508	0.	125.47
4892	-9.4993	8.7504	0.	125.25
4893	-9.4995	9.2501	0.	125.09
4894	0.17071	5.1859	0.	122.42
4895	0.40394	5.646	0.	128.37
4896	0.44142	5.4101	0.	124.85
4897	0.67305	6.1127	0.	125.65
4898	0.88578	5.8746	0.	127.92
4899	0.63616	5.6224	0.	129.33
4900	1.4191	5.9077	0.	124.18
4901	8.562	5.7517	0.	132.41
4902	8.3346	6.0137	0.	136.89
4903	8.5707	6.2366	0.	129.24
4904	-2.0391	-7.2167	0.	121.25
4905	3.1964	8.4872	0.	126.55
4906	2.6963	8.4761	0.	126.68
4907	0.9807	0.76545	0.	124.44
4908	2.7644	6.7144	0.	126.29
4909	5.0142	-5.8868	0.	128.49
4910	4.7472	-6.1144	0.	128.46
4911	0.95231	-0.77326	0.	125.64
4912	-7.2433	5.5311	0.	118.27
4913	-0.32502	-6.4266	0.	132.17
4914	1.9151	5.9315	0.	125.91
4915	2.6567	-1.8064	0.	126.88
4916	2.7718	-2.0164	0.	126.91
4917	-4.9672	5.645	0.	126.6
4918	-5.2473	5.406	0.	126.83
4919	-4.7505	5.3631	0.	126.83
4920	4.1309	5.7679	0.	128.51
4921	4.4128	6.0267	0.	126.89
4922	-5.2942	-1.2979	0.	123.77
4923	-5.3114	-0.86264	0.	124.41
4924	8.2797	-3.1321	0.	125.65
4925	8.5667	-3.2548	0.	127.4
4926	-6.5614	-5.7201	0.	123.11
4927	-6.3267	-5.4566	0.	121.57
4928	5.6445	5.8027	0.	130.18
4929	3.6948	8.4965	0.	126.67
4930	0.17294	7.2817	0.	120.34
4931	0.38807	7.063	0.	129.53
4932	-6.7251	-0.99396	0.	118.75
4933	-6.4568	-1.1983	0.	118.03
4934	-6.4492	0.2011	0.	125.16
4935	8.5503	5.2507	0.	132.39
4936	8.3224	5.5005	0.	133.9
4937	-3.8686	-5.5307	0.	128.57
4938	-3.5745	-6.7452	0.	128.89
4939	0.64939	-7.0834	0.	130.67
4940	5.2049	8.5153	0.	128.59
4941	-5.6153	3.169	0.	127.87
4942	2.5636	-2.0405	0.	126.78
4943	-5.9898	5.7042	0.	125.26
4944	-5.7493	5.4381	0.	126.28
4945	-2.4762	5.7719	0.	126.43
4946	-2.7724	5.9763	0.	126.19
4947	-3.107	-4.4061	0.	132.4
4948	-3.1145	-3.9045	0.	134.71
4949	6.2017	2.0701	0.	120.93
4950	-2.659	-5.7818	0.	132.38
4951	-2.063	-6.7006	0.	118.23
4952	-1.801	-6.9606	0.	121.51
4953	4.2305	-8.5209	0.	127.31
4954	4.7291	-8.5268	0.	126.62
4955	8.2642	4.007	0.	125.45
4956	8.5189	4.2549	0.	127.41
4957	-4.3493	-1.2565	0.	132.85
4958	-4.3735	-1.7621	0.	134.34
4959	-4.125	-1.5274	0.	133.01
4960	1.5796	6.8922	0.	127.68
4961	-5.7391	8.4858	0.	124.86
4962	-3.0958	-3.4015	0.	128.3
4963	-1.4654	5.8845	0.	133.8
4964	-1.9644	5.8211	0.	126.41
4965	7.8246	-3.299	0.	121.87
4966	2.9479	-2.2547	0.	126.99
4967	2.42	-2.3411	0.	126.62
4968	2.7002	-2.4958	0.	126.7
4969	-3.571	3.6328	0.	126.77
4970	-3.5683	3.1593	0.	126.66
4971	-3.3108	3.4047	0.	126.72
4972	-4.8075	-0.2081	0.	127.62
4973	-4.7233	0.29619	0.	127.1
4974	-5.0909	4.1325	0.	126.93
4975	-7.4949	8.7472	0.	124.35
4976	-7.2429	8.4951	0.	124.18
4977	-2.4987	8.8044	0.	126.84
4978	5.608	5.2908	0.	129.08
4979	5.3737	5.5421	0.	132.16
4980	-6.24	8.4878	0.	124.54
4981	-6.7414	8.4914	0.	124.29
4982	-5.518	5.1687	0.	127.27
4983	-5.5573	4.6599	0.	127.95
4984	-6.7141	-1.4275e-002	0.	121.59
4985	-5.5142	-1.53	0.	118.66
4986	-2.757	-8.4846	0.	124.76
4987	-0.29649	7.2737	0.	114.02
4988	4.7046	6.2845	0.	125.58
4989	4.7793	6.7839	0.	124.89
4990	-5.9724	6.2075	0.	124.47
4991	3.2424	2.0204	0.	129.84
4992	1.6514	-4.9211	0.	123.29
4993	1.5991	-4.3831	0.	124.
4994	2.206	-2.7087	0.	126.28
4995	2.4861	-2.8634	0.	126.36
4996	1.9167	-2.4827	0.	126.34
4997	0.49054	1.7573	0.	120.21
4998	-8.5148	-5.2507	0.	123.6
4999	2.5106	3.2422	0.	128.45
5000	3.734	-8.5187	0.	127.92
5001	3.2402	-8.5204	0.	128.76
5002	-0.7663	1.0143	0.	124.98
5003	-1.0223	1.253	0.	125.68
5004	-4.1126	-5.2726	0.	128.05
5005	-4.3626	-5.0139	0.	128.19
5006	-4.1055	-4.7892	0.	129.17
5007	3.8266	-4.3131	0.	126.16
5008	3.6758	-4.7915	0.	126.12
5009	-7.4984	-1.8072	0.	129.09
5010	-1.6073	-2.0247	0.	123.86
5011	-1.641	-2.5228	0.	122.7
5012	-6.7539	-8.4983	0.	126.81
5013	-3.0471	-7.2367	0.	126.12
5014	-3.3091	-6.9901	0.	127.48
5015	-0.75843	2.99	0.	126.47
5016	-6.8395	2.7515	0.	118.28
5017	-4.3312	-0.74968	0.	130.41
5018	-8.6229	-1.2109	0.	127.7
5019	-8.6475	-0.72909	0.	128.43
5020	-3.826	-3.583	0.	130.96
5021	-3.3471	-3.6295	0.	130.75
5022	1.3574	7.1279	0.	128.77
5023	1.7417	2.0087	0.	128.47
5024	1.4893	1.7601	0.	126.92
5025	0.57259	-5.926	0.	123.72
5026	7.6217	-3.5662	0.	121.84
5027	-0.76026	8.6173	0.	123.66
5028	5.392	-8.7937e-002	0.	124.25
5029	8.5338	4.7518	0.	130.
5030	8.2602	2.5369	0.	124.92
5031	7.7767	2.5554	0.	123.36
5032	2.7492	-8.5269	0.	130.56
5033	2.5575	4.7125	0.	129.72
5034	-4.8688	-4.9836	0.	126.39
5035	-2.8195	1.4473	0.	126.64
5036	8.7539	2.5191	0.	127.52
5037	5.2119	-7.0866	0.	127.25
5038	5.7122	-7.0957	0.	125.83
5039	2.7413	2.0161	0.	129.49
5040	2.2411	2.0121	0.	129.34
5041	0.66662	-5.0187	0.	123.05
5042	-1.8344	-6.459	0.	118.84
5043	9.0031	2.7608	0.	128.03
5044	3.8982	-5.0753	0.	126.13
5045	8.449	-4.3412	0.	128.36
5046	-0.15347	-7.864	0.	125.77
5047	-5.8187	1.9783	0.	137.08
5048	8.095	5.7625	0.	138.18
5049	-1.5724	-6.719	0.	122.21
5050	-3.9969	-2.8091	0.	128.47
5051	-3.9502	-2.3049	0.	129.59
5052	-4.0446	-3.3103	0.	129.55
5053	-5.0961	-0.56276	0.	126.33
5054	-4.5916	-0.48316	0.	128.64
5055	-3.3133	3.8767	0.	126.95
5056	-5.3282	4.3928	0.	127.66
5057	-8.7869	-2.4694	0.	125.18
5058	-2.5263	-1.9319	0.	125.12
5059	1.9875	1.7641	0.	128.68
5060	1.7351	1.5156	0.	127.12
5061	-7.5839	-2.1457	0.	129.75
5062	-4.3676	-5.5015	0.	127.1
5063	-4.6177	-5.2428	0.	127.23
5064	-4.6122	-5.7363	0.	126.45
5065	2.4083	5.9491	0.	126.69
5066	-0.58946	-1.1292	0.	125.13
5067	-6.3618	2.8808	0.	130.36
5068	-6.5617	2.6205	0.	128.88
5069	-0.22857	-8.5464	0.	130.91
5070	-0.48167	-8.7604	0.	129.15
5071	-0.43521	-8.2351	0.	127.67
5072	-2.2722	4.4046	0.	128.4
5073	-2.0142	4.6597	0.	129.29
5074	-6.9973	5.2815	0.	119.25
5075	5.4031	-3.9907	0.	128.1
5076	8.594	-6.2377	0.	129.96
5077	-3.8247	2.9181	0.	126.72
5078	-4.3384	2.9143	0.	127.08
5079	-4.8485	2.917	0.	127.85
5080	-6.7445	-0.50159	0.	118.35
5081	8.5432	6.6961	0.	127.89
5082	-6.5035	-8.7481	0.	126.38
5083	-1.0058	3.2367	0.	124.8
5084	0.2491	-8.601	0.	130.87
5085	-5.8599	2.9218	0.	130.46
5086	-1.2542	3.4814	0.	124.65
5087	7.1908	-6.6075	0.	116.7
5088	5.7438	2.0683	0.	120.91
5089	-1.3015	-6.9402	0.	124.84
5090	5.2293	-8.5323	0.	125.72
5091	2.1957	8.4666	0.	126.91
5092	5.4434	0.38846	0.	122.81
5093	-4.4418	0.51935	0.	127.01
5094	-4.1587	-2.0334	0.	132.58
5095	6.9517	-6.8531	0.	117.66
5096	7.48	8.2532	0.	124.23
5097	-3.9102	-1.7987	0.	131.2
5098	-6.0955	-5.1811	0.	119.05
5099	5.7147	8.5198	0.	127.42
5100	-5.0984	2.6815	0.	128.94
5101	-5.3544	2.9238	0.	128.79
5102	-8.4465	-0.94772	0.	127.31
5103	-3.0531	3.6486	0.	126.89
5104	-8.0715	-0.81149	0.	125.28
5105	5.4951	0.86394	0.	122.46
5106	7.4573	7.7938	0.	125.18
5107	2.6876	6.2113	0.	126.7
5108	1.	4.	0.	99.144
5109	0.	4.	0.	94.785
5110	1.	3.	0.	97.629
5111	0.	3.	0.	96.379
5112	0.5	4.	0.	112.46
5113	1.	3.5	0.	103.29
5114	0.	3.5	0.	100.79
5115	0.5	3.	0.	112.37
5116	0.5	3.5	0.	109.6
5117	0.75	4.	0.	105.78
5118	1.	3.75	0.	101.21
5119	0.25	4.	0.	103.61
5120	0.	3.75	0.	97.768
5121	1.	3.25	0.	100.45
5122	0.75	3.	0.	104.97
5123	0.	3.25	0.	98.577
5124	0.25	3.	0.	104.36
5125	0.5	3.75	0.	110.99
5126	0.75	3.5	0.	106.42
5127	0.25	3.5	0.	105.17
5128	0.5	3.25	0.	110.93
5129	7.	4.	0.	93.729
5130	5.	4.	0.	100.61
5131	7.	3.	0.	94.087
5132	5.	3.	0.	100.18
5133	6.5	4.	0.	110.33
5134	6.	4.	0.	111.58
5135	5.5	4.	0.	115.6
5136	7.	3.5	0.	98.81
5137	5.	3.5	0.	105.2
5138	5.5	3.	0.	115.95
5139	6.	3.	0.	113.01
5140	6.5	3.	0.	112.16
5141	5.5	3.5	0.	114.27
5142	6.	3.5	0.	115.25
5143	6.5	3.5	0.	109.93
5144	6.75	4.	0.	102.01
5145	7.	3.75	0.	96.248
5146	5.25	4.	0.	108.06
5147	5.	3.75	0.	102.88
5148	7.	3.25	0.	96.416
5149	6.75	3.	0.	103.08
5150	5.	3.25	0.	102.67
5151	5.25	3.	0.	108.01
5152	6.25	4.	0.	110.95
5153	6.5	3.75	0.	110.12
5154	5.75	4.	0.	113.59
5155	6.	3.75	0.	113.41
5156	5.5	3.75	0.	114.92
5157	6.75	3.5	0.	104.35
5158	5.25	3.5	0.	109.73
5159	5.75	3.	0.	114.48
5160	5.5	3.25	0.	115.09
5161	6.25	3.	0.	112.59
5162	6.	3.25	0.	114.13
5163	6.5	3.25	0.	111.04
5164	5.75	3.5	0.	114.76
5165	6.25	3.5	0.	112.59
5166	-6.51	1.59	0.	56.359
5167	-7.93	1.6	0.	56.862
5168	-7.23	0.36	0.	105.7
5169	-6.9833	1.5933	0.	110.25
5170	-7.4567	1.5967	0.	106.68
5171	-6.75	1.18	0.	95.388
5172	-6.99	0.77	0.	89.252
5173	-7.6967	1.1867	0.	92.763
5174	-7.4633	0.77333	0.	88.139
5175	-7.2249	0.99293	0.	97.714
5176	-7.3867	1.2797	0.	95.557
5177	-7.0584	1.2774	0.	96.844
5178	-6.7467	1.5917	0.	82.463
5179	-6.63	1.385	0.	74.972
5180	-7.6933	1.5983	0.	80.949
5181	-7.8133	1.3933	0.	73.858
5182	-7.11	0.565	0.	95.975
5183	-7.3467	0.56667	0.	95.51
5184	-7.22	1.595	0.	108.3
5185	-7.0209	1.4353	0.	103.44
5186	-7.4217	1.4382	0.	100.99
5187	-6.87	0.975	0.	92.235
5188	-6.9042	1.2287	0.	96.023
5189	-7.1074	0.88146	0.	93.426
5190	-7.58	0.98	0.	90.379
5191	-7.5417	1.2332	0.	94.057
5192	-7.3441	0.88313	0.	92.866
5193	-7.3058	1.1363	0.	96.581
5194	-7.1416	1.1351	0.	97.218
5195	-7.2225	1.2785	0.	96.12
5196	-8.1	2.68	0.	80.6
5197	-6.74	3.38	0.	71.982
5198	-8.03	4.21	0.	83.959
5199	-7.6467	2.9133	0.	96.328
5200	-7.1933	3.1467	0.	99.917
5201	-8.0767	3.19	0.	101.03
5202	-8.0533	3.7	0.	100.13
5203	-7.17	3.6567	0.	98.257
5204	-7.6	3.9333	0.	96.052
5205	-7.7174	3.6052	0.	97.165
5206	-7.4191	3.4133	0.	99.761
5207	-7.7335	3.2515	0.	96.437
5208	-7.8733	2.7967	0.	86.878
5209	-8.0883	2.935	0.	89.222
5210	-6.9667	3.2633	0.	81.708
5211	-6.955	3.5183	0.	80.714
5212	-8.0417	3.955	0.	90.046
5213	-7.815	4.0717	0.	88.269
5214	-7.42	3.03	0.	97.903
5215	-7.6901	3.0824	0.	96.317
5216	-7.3062	3.28	0.	99.33
5217	-8.065	3.445	0.	100.44
5218	-7.9051	3.2207	0.	98.688
5219	-7.8854	3.6526	0.	98.575
5220	-7.385	3.795	0.	97.057
5221	-7.2945	3.535	0.	98.616
5222	-7.6587	3.7693	0.	96.565
5223	-7.5682	3.5093	0.	98.382
5224	-7.7255	3.4283	0.	96.801
5225	-7.5763	3.3324	0.	98.029
5226	-5.72	-3.94	0.	103.01
5227	-5.27	-2.39	0.	63.139
5228	-6.83	-2.78	0.	68.584
5229	-5.57	-3.4233	0.	97.695
5230	-5.42	-2.9067	0.	102.02
5231	-6.09	-3.5533	0.	91.784
5232	-6.46	-3.1667	0.	97.083
5233	-5.79	-2.52	0.	110.39
5234	-6.31	-2.65	0.	110.72
5235	-5.7851	-2.8871	0.	99.603
5236	-5.8891	-3.2455	0.	101.67
5237	-6.1458	-2.9773	0.	102.86
5238	-5.645	-3.6817	0.	98.193
5239	-5.905	-3.7467	0.	95.883
5240	-5.345	-2.6483	0.	82.375
5241	-5.53	-2.455	0.	86.404
5242	-6.645	-2.9733	0.	79.62
5243	-6.57	-2.715	0.	86.291
5244	-5.495	-3.165	0.	99.71
5245	-5.7296	-3.3344	0.	99.562
5246	-5.6025	-2.8969	0.	100.81
5247	-6.275	-3.36	0.	94.351
5248	-5.9896	-3.3994	0.	96.723
5249	-6.3029	-3.072	0.	99.717
5250	-6.05	-2.585	0.	110.43
5251	-5.7875	-2.7036	0.	104.98
5252	-6.2279	-2.8137	0.	106.43
5253	-5.8371	-3.0663	0.	100.62
5254	-5.9654	-2.9322	0.	101.15
5255	-6.0174	-3.1114	0.	102.18
5256	-0.31	5.32	0.	109.38
5257	0.27	6.4	0.	48.483
5258	-0.96	6.36	0.	50.698
5259	-0.11667	5.68	0.	90.8
5260	7.6667e-002	6.04	0.	92.229
5261	-0.52667	5.6667	0.	88.884
5262	-0.74333	6.0133	0.	92.486
5263	-0.14	6.3867	0.	111.32
5264	-0.55	6.3733	0.	112.74
5265	-0.19206	6.112	0.	98.262
5266	-0.47709	6.1029	0.	99.365
5267	-0.32686	5.8628	0.	99.169
5268	-0.21333	5.5	0.	98.042
5269	-0.41833	5.4933	0.	97.382
5270	0.17333	6.22	0.	69.324
5271	6.5e-002	6.3933	0.	79.164
5272	-0.85167	6.1867	0.	69.529
5273	-0.755	6.3667	0.	79.926
5274	-2.e-002	5.86	0.	91.36
5275	-0.22176	5.7714	0.	94.849
5276	-5.7695e-002	6.076	0.	95.09
5277	-0.635	5.84	0.	90.559
5278	-0.42676	5.7648	0.	93.956
5279	-0.61021	6.0581	0.	95.741
5280	-0.345	6.38	0.	111.92
5281	-0.16603	6.2494	0.	104.71
5282	-0.51355	6.2381	0.	105.87
5283	-0.33457	6.1075	0.	98.682
5284	-0.25946	5.9874	0.	98.616
5285	-0.40198	5.9829	0.	99.147
5286	-2.64	-4.72	0.	48.485
5287	-2.07	-5.85	0.	111.85
5288	-1.38	-4.8	0.	52.021
5289	-2.45	-5.0967	0.	95.751
5290	-2.26	-5.4733	0.	92.962
5291	-2.22	-4.7467	0.	113.67
5292	-1.8	-4.7733	0.	114.17
5293	-1.84	-5.5	0.	90.056
5294	-1.61	-5.15	0.	93.159
5295	-2.1709	-5.028	0.	100.47
5296	-2.0389	-5.2899	0.	101.07
5297	-1.8796	-5.0495	0.	101.38
5298	-2.545	-4.9083	0.	71.409
5299	-2.43	-4.7333	0.	80.579
5300	-2.165	-5.6617	0.	100.31
5301	-1.955	-5.675	0.	99.237
5302	-1.59	-4.7867	0.	80.962
5303	-1.495	-4.975	0.	70.143
5304	-2.355	-5.285	0.	94.203
5305	-2.3105	-5.0623	0.	97.982
5306	-2.1495	-5.3816	0.	96.876
5307	-2.01	-4.76	0.	113.8
5308	-2.1955	-4.8873	0.	107.
5309	-1.8398	-4.9114	0.	107.56
5310	-1.725	-5.325	0.	91.461
5311	-1.9395	-5.3949	0.	95.486
5312	-1.7448	-5.0998	0.	97.059
5313	-2.1049	-5.1589	0.	100.67
5314	-2.0253	-5.0388	0.	100.78
5315	-1.9592	-5.1697	0.	101.1
5316	1.44	-7.08	0.	94.777
5317	0.63	-7.75	0.	62.068
5318	1.61	-8.12	0.	68.398
5319	1.035	-7.415	0.	87.363
5320	1.525	-7.6	0.	101.56
5321	1.12	-7.935	0.	108.58
5322	1.2265	-7.6501	0.	102.85
5323	1.2375	-7.2475	0.	89.675
5324	1.4825	-7.34	0.	95.907
5325	0.8325	-7.5825	0.	68.975
5326	0.875	-7.8425	0.	80.273
5327	1.5675	-7.86	0.	84.278
5328	1.365	-8.0275	0.	87.08
5329	1.1308	-7.5326	0.	94.198
5330	1.3758	-7.6251	0.	102.1
5331	1.1733	-7.7926	0.	104.96
5332	7.09	-3.91	0.	108.1
5333	6.38	-5.23	0.	57.765
5334	7.88	-5.18	0.	60.092
5335	6.8533	-4.35	0.	92.068
5336	6.6167	-4.79	0.	97.978
5337	7.3533	-4.3333	0.	91.12
5338	7.6167	-4.7567	0.	97.285
5339	6.88	-5.2133	0.	113.37
5340	7.38	-5.1967	0.	113.59
5341	7.2932	-4.8673	0.	100.78
5342	6.9463	-4.8789	0.	100.15
5343	7.1105	-4.5737	0.	101.24
5344	6.9717	-4.13	0.	98.559
5345	7.2217	-4.1217	0.	98.205
5346	6.4983	-5.01	0.	77.133
5347	6.63	-5.2217	0.	84.836
5348	7.7483	-4.9683	0.	77.369
5349	7.63	-5.1883	0.	85.501
5350	6.735	-4.57	0.	94.891
5351	6.9819	-4.4619	0.	96.592
5352	6.7815	-4.8345	0.	98.982
5353	7.485	-4.545	0.	94.093
5354	7.2319	-4.4535	0.	96.148
5355	7.4549	-4.812	0.	98.921
5356	7.13	-5.205	0.	113.37
5357	6.9132	-5.0461	0.	106.67
5358	7.3366	-5.032	0.	107.03
5359	7.1197	-4.8731	0.	100.34
5360	7.2018	-4.7205	0.	100.94
5361	7.0284	-4.7263	0.	100.63
5362	8.43	0.31	0.	80.805
5363	7.18	1.44	0.	95.61
5364	6.82	-0.21	0.	66.591
5365	8.1175	0.5925	0.	106.52
5366	7.805	0.875	0.	103.29
5367	7.4925	1.1575	0.	96.384
5368	8.0275	0.18	0.	114.91
5369	7.625	5.e-002	0.	104.82
5370	7.2225	-8.e-002	0.	108.42
5371	7.09	1.0275	0.	98.402
5372	7.	0.615	0.	97.596
5373	6.91	0.2025	0.	101.12
5374	7.2104	0.22123	0.	98.195
5375	7.7684	0.54642	0.	105.57
5376	7.5023	0.33106	0.	104.34
5377	7.4136	0.82071	0.	101.24
5378	7.2791	0.5243	0.	101.26
5379	8.2738	0.45125	0.	90.259
5380	8.2288	0.245	0.	94.613
5381	7.3362	1.2988	0.	94.433
5382	7.135	1.2337	0.	95.239
5383	7.0212	-0.145	0.	86.984
5384	6.865	-3.75e-003	0.	83.438
5385	7.9612	0.73375	0.	104.84
5386	7.9429	0.56946	0.	105.88
5387	7.6487	1.0163	0.	99.837
5388	7.7867	0.71071	0.	104.41
5389	7.453	0.98911	0.	98.772
5390	7.8263	0.115	0.	109.84
5391	7.8979	0.36321	0.	110.03
5392	7.4237	-1.5e-002	0.	106.59
5393	7.5636	0.19053	0.	104.58
5394	7.2165	7.0613e-002	0.	103.28
5395	7.045	0.82125	0.	97.895
5396	7.2518	0.92411	0.	99.754
5397	6.955	0.40875	0.	99.351
5398	7.1396	0.56965	0.	99.419
5399	7.0602	0.21186	0.	99.651
5400	7.3564	0.27614	0.	101.25
5401	7.2448	0.37276	0.	99.698
5402	7.6353	0.43874	0.	104.88
5403	7.591	0.68356	0.	103.35
5404	7.3907	0.42768	0.	102.79
5405	7.3464	0.6725	0.	101.25
5406	7.69	6.44	0.	66.806
5407	6.57	7.62	0.	103.18
5408	6.1	6.06	0.	59.698
5409	7.3167	6.8333	0.	97.734
5410	6.9433	7.2267	0.	91.852
5411	7.16	6.3133	0.	111.48
5412	6.63	6.1867	0.	108.88
5413	6.4133	7.1	0.	96.681
5414	6.2567	6.58	0.	99.529
5415	6.9955	6.645	0.	102.72
5416	6.6279	6.5571	0.	98.491
5417	6.7366	6.9178	0.	100.97
5418	7.5033	6.6367	0.	79.17
5419	7.425	6.3767	0.	85.747
5420	6.7567	7.4233	0.	96.015
5421	6.4917	7.36	0.	97.785
5422	6.365	6.1233	0.	83.976
5423	6.1783	6.32	0.	79.457
5424	7.13	7.03	0.	94.742
5425	7.1561	6.7392	0.	100.01
5426	6.84	7.0722	0.	96.404
5427	6.895	6.25	0.	110.05
5428	7.0778	6.4792	0.	106.71
5429	6.6289	6.3719	0.	103.67
5430	6.335	6.84	0.	97.925
5431	6.575	7.0089	0.	98.673
5432	6.4423	6.5686	0.	98.995
5433	6.8117	6.6011	0.	100.52
5434	6.8661	6.7814	0.	101.75
5435	6.6822	6.7375	0.	99.703
5436	-8.	-7.	0.	97.512
5437	-9.	-7.	0.	98.903
5438	-8.	-8.	0.	97.544
5439	-9.	-8.	0.	98.604
5440	-8.5	-7.	0.	113.68
5441	-8.	-7.5	0.	102.87
5442	-9.	-7.5	0.	104.01
5443	-8.5	-8.	0.	113.43
5444	-8.5	-7.5	0.	111.15
5445	-8.25	-7.	0.	105.58
5446	-8.	-7.25	0.	100.18
5447	-8.75	-7.	0.	106.28
5448	-9.	-7.25	0.	101.45
5449	-8.	-7.75	0.	100.19
5450	-8.25	-8.	0.	105.47
5451	-9.	-7.75	0.	101.3
5452	-8.75	-8.	0.	106.
5453	-8.5	-7.25	0.	112.37
5454	-8.25	-7.5	0.	106.98
5455	-8.75	-7.5	0.	107.56
5456	-8.5	-7.75	0.	112.24
